4/12/2023 3:41:07 pm
Time(s)	Displacement(mm)	Force(N)
0.0000	-315.4950	0.1475
0.1193	-315.0820	1.1681
0.2200	-314.4310	1.6096
0.3197	-313.7470	1.8010
0.4200	-313.0980	1.8862
0.5193	-312.4140	1.9282
0.6200	-311.7640	1.9442
0.7200	-311.0810	1.9431
0.8194	-310.4310	1.9280
0.9191	-309.7480	1.9050
1.0200	-309.0980	1.8753
1.1199	-308.4140	1.8403
1.2210	-307.7650	1.8057
1.3204	-307.0820	1.7703
1.4207	-306.4320	1.7329
1.5204	-305.7460	1.6952
1.6208	-305.0620	1.6565
1.7202	-304.4130	1.6216
1.8215	-303.7290	1.5896
1.9215	-303.0800	1.5565
2.0216	-302.3970	1.5274
2.1220	-301.7470	1.4964
2.2216	-301.0640	1.4729
2.3218	-300.4140	1.4449
2.4217	-299.7300	1.4241
2.5219	-299.0810	1.4020
2.6212	-298.3970	1.3774
2.7224	-297.7480	1.3627
2.8238	-297.0640	1.3425
2.9233	-296.3810	1.3283
3.0234	-295.7320	1.3118
3.1249	-295.0480	1.2965
3.2242	-294.3980	1.2808
3.3260	-293.7150	1.2711
3.4258	-293.0650	1.2615
3.5254	-292.3820	1.2507
3.6252	-291.6980	1.2417
3.7270	-291.0490	1.2303
3.8277	-290.3650	1.2238
3.9274	-289.7160	1.2167
4.0272	-289.0300	1.2112
4.1276	-288.3800	1.2006
4.2275	-287.6970	1.1960
4.3278	-287.0470	1.1897
4.4292	-286.3640	1.1873
4.5283	-285.7140	1.1797
4.6291	-285.0310	1.1735
4.7296	-284.3470	1.1690
4.8292	-283.6980	1.1651
4.9299	-283.0140	1.1623
5.0313	-282.3300	1.1602
5.1325	-281.6810	1.1599
5.2326	-280.9980	1.1573
5.3334	-280.3480	1.1539
5.4349	-279.6650	1.1516
5.5357	-278.9810	1.1470
5.6366	-278.2970	1.1465
5.7370	-277.6480	1.1463
5.8381	-276.9640	1.1442
5.9382	-276.2810	1.1449
6.0400	-275.6310	1.1481
6.1392	-274.9450	1.1476
6.2416	-274.2620	1.1492
6.3415	-273.6120	1.1503
6.4419	-272.9630	1.1497
6.5415	-272.2790	1.1556
6.6414	-271.5960	1.1612
6.7419	-270.9470	1.1664
6.8419	-270.2630	1.1710
6.9420	-269.6130	1.1807
7.0418	-268.9640	1.1902
7.1414	-268.2780	1.1968
7.2418	-267.5940	1.2070
7.3428	-266.9450	1.2132
7.4425	-266.2610	1.2250
7.5429	-265.6670	1.2136
7.6431	-265.6390	1.2311
7.7431	-265.6390	1.2315
7.8430	-265.6390	1.2309
7.9437	-265.6390	1.2335
8.0433	-265.6390	1.2332
8.1438	-265.6390	1.2304
8.2436	-265.6390	1.2313
8.3440	-265.6390	1.2331
8.4435	-265.6400	1.2328
8.5438	-265.6400	1.2326
8.6439	-265.6400	1.2299
8.7437	-265.6400	1.2345
8.8438	-265.6400	1.2335
8.9435	-265.6400	1.2321
9.0442	-265.6400	1.2292
9.1452	-265.6400	1.2316
9.2447	-265.6400	1.2297
9.3445	-265.6400	1.2318
9.4442	-265.6400	1.2300
9.5444	-265.6400	1.2290
9.6443	-265.6400	1.2295
9.7450	-265.6400	1.2294
9.8448	-265.6400	1.2307
9.9443	-265.6400	1.2283
10.0450	-265.6400	1.2279
10.1445	-265.6400	1.2293
10.2446	-265.6400	1.2309
10.3445	-265.6400	1.2272
10.4453	-265.6400	1.2270
10.5455	-265.6400	1.2287
10.6461	-265.6400	1.2272
10.7455	-265.6400	1.2304
10.8464	-265.6400	1.2298
10.9476	-265.6400	1.2327
11.0474	-265.6400	1.2285
11.1472	-265.6400	1.2305
11.2483	-265.6400	1.2303
11.3484	-265.6400	1.2308
11.4492	-265.6400	1.2311
11.5494	-265.6400	1.2276
11.6493	-265.6400	1.2280
11.7498	-265.6400	1.2310
11.8499	-265.6400	1.2296
11.9492	-265.6400	1.2304
12.0502	-265.6400	1.2278
12.1503	-265.6400	1.2304
12.2509	-265.6400	1.2291
12.3503	-265.6400	1.2290
12.4519	-265.6400	1.2270
12.5515	-265.6400	1.2272
12.6514	-265.6400	1.2268
12.7516	-265.6400	1.2257
12.8529	-265.6400	1.2230
12.9525	-265.6400	1.2281
13.0539	-265.6400	1.2250
13.1534	-265.6400	1.2252
13.2538	-265.6400	1.2258
13.3542	-265.6400	1.2290
13.4552	-265.6400	1.2276
13.5560	-265.6400	1.2260
13.6559	-265.6400	1.2273
13.7557	-265.6400	1.2274
13.8560	-265.6400	1.2254
13.9562	-265.6400	1.2240
14.0557	-265.6400	1.2258
14.1553	-265.6400	1.2280
14.2560	-265.6400	1.2259
14.3558	-265.6400	1.2260
14.4555	-265.6400	1.2272
14.5553	-265.6400	1.2282
14.6553	-265.6400	1.2314
14.7563	-265.6400	1.2279
14.8573	-265.6400	1.2286
14.9575	-265.6400	1.2286
15.0573	-265.6400	1.2279
15.1580	-265.6400	1.2279
15.2582	-265.6400	1.2289
15.3576	-265.6400	1.2293
15.4576	-265.6400	1.2277
15.5574	-265.6400	1.2284
15.6574	-265.6400	1.2289
15.7577	-265.6400	1.2294
15.8577	-265.6400	1.2300
15.9577	-265.6400	1.2270
16.0577	-265.6400	1.2296
16.1580	-265.6400	1.2296
16.2580	-265.7680	1.2143
16.3776	-266.1790	1.2157
16.4778	-266.8640	1.2126
16.5783	-267.5130	1.2034
16.6794	-268.1970	1.1907
16.7794	-268.8830	1.1809
16.8793	-269.5330	1.1703
16.9809	-270.2160	1.1640
17.0809	-270.8660	1.1537
17.1816	-271.5520	1.1466
17.2817	-272.2010	1.1401
17.3825	-272.8850	1.1398
17.4832	-273.5340	1.1378
17.5823	-274.2200	1.1365
17.6826	-274.8690	1.1349
17.7827	-275.5530	1.1369
17.8832	-276.2370	1.1330
17.9830	-276.8860	1.1296
18.0829	-277.5700	1.1289
18.1825	-278.2190	1.1329
18.2832	-278.9020	1.1311
18.3840	-279.5520	1.1291
18.4842	-280.2360	1.1300
18.5852	-280.8850	1.1279
18.6848	-281.5690	1.1291
18.7849	-282.2520	1.1296
18.8845	-282.9020	1.1304
18.9846	-283.5850	1.1274
19.0849	-284.2350	1.1294
19.1858	-284.9180	1.1238
19.2862	-285.5680	1.1237
19.3861	-286.2540	1.1259
19.4862	-286.9030	1.1238
19.5858	-287.5870	1.1265
19.6854	-288.2360	1.1245
19.7857	-288.9200	1.1238
19.8857	-289.5690	1.1227
19.9882	-290.2870	1.1212
20.0868	-290.9020	1.1191
20.1868	-291.5860	1.1169
20.2868	-292.2350	1.1158
20.3865	-292.9190	1.1113
20.4882	-293.6020	1.1021
20.5873	-294.2520	1.0964
20.6880	-294.9350	1.0932
20.7881	-295.5850	1.0829
20.8874	-296.2340	1.0687
20.9873	-296.9200	1.0582
21.0882	-297.5690	1.0471
21.1896	-298.2870	1.0327
21.2890	-298.9370	1.0173
21.3893	-299.5870	0.9940
21.4895	-300.2700	0.9709
21.5904	-300.9540	0.9457
21.6921	-301.6030	0.9194
21.7914	-302.2860	0.8983
21.8913	-302.9360	0.8728
21.9915	-303.6220	0.8374
22.0917	-304.2710	0.8025
22.1914	-304.9570	0.7689
22.2913	-305.6070	0.7257
22.3922	-306.2910	0.6818
22.4917	-306.9400	0.6351
22.5914	-307.6230	0.5853
22.6914	-308.2730	0.5275
22.7918	-308.9570	0.4658
22.8915	-309.6060	0.3982
22.9914	-310.2890	0.3281
23.0916	-310.9390	0.2481
23.1919	-311.6220	0.1620
23.2916	-312.2720	0.0649
23.3919	-312.9550	-0.0356
23.4918	-312.9550	-0.1543
23.5923	-314.2910	-0.2815
23.6917	-314.9400	-0.4190
23.7923	-315.5940	-0.7745
23.8915	-315.6410	-1.0709
23.9917	-315.6410	-0.9537
24.0923	-315.6410	-0.9055
24.1918	-315.6410	-0.8741
24.2922	-315.6400	-0.8512
24.3920	-315.6400	-0.8333
24.4917	-315.6400	-0.8193
24.5921	-315.6400	-0.8074
24.6914	-315.6400	-0.7979
24.7924	-315.6400	-0.7878
24.8936	-315.6400	-0.7807
24.9940	-315.6400	-0.7739
25.0938	-315.6400	-0.7663
25.1940	-315.6400	-0.7611
25.2935	-315.6400	-0.7542
25.3951	-315.6400	-0.7481
25.4953	-315.6400	-0.7430
25.5944	-315.6400	-0.7397
25.6948	-315.6400	-0.7363
25.7946	-315.6400	-0.7343
25.8957	-315.6400	-0.7320
25.9957	-315.6400	-0.7280
26.0957	-315.6400	-0.7247
26.1954	-315.6400	-0.7210
26.2974	-315.6400	-0.7186
26.3977	-315.6400	-0.7146
26.5002	-315.6400	-0.7101
26.6001	-315.6400	-0.7095
26.6997	-315.6400	-0.7081
26.7996	-315.6400	-0.7039
26.9014	-315.6400	-0.7020
27.0007	-315.6400	-0.7021
27.1012	-315.6400	-0.7006
27.2022	-315.6400	-0.6985
27.3015	-315.6400	-0.6954
27.4017	-315.6400	-0.6944
27.5017	-315.6400	-0.6915
27.6016	-315.6400	-0.6889
27.7024	-315.6400	-0.6885
27.8035	-315.6400	-0.6865
27.9051	-315.6400	-0.6831
28.0063	-315.6400	-0.6818
28.1062	-315.6400	-0.6827
28.2059	-315.6400	-0.6782
28.3057	-315.6400	-0.6773
28.4063	-315.6400	-0.6760
28.5054	-315.6400	-0.6773
28.6054	-315.6400	-0.6722
28.7058	-315.6400	-0.6736
28.8064	-315.6400	-0.6725
28.9068	-315.6400	-0.6726
29.0073	-315.6400	-0.6731
29.1087	-315.6400	-0.6699
29.2075	-315.6400	-0.6696
29.3081	-315.6400	-0.6694
29.4090	-315.6400	-0.6678
29.5089	-315.6400	-0.6654
29.6093	-315.6400	-0.6643
29.7084	-315.6400	-0.6626
29.8088	-315.6400	-0.6614
29.9084	-315.6400	-0.6578
30.0089	-315.6400	-0.6585
30.1103	-315.6400	-0.6576
30.2122	-315.6400	-0.6541
30.3124	-315.6400	-0.6549
30.4135	-315.6400	-0.6544
30.5141	-315.6400	-0.6503
30.6143	-315.6400	-0.6536
30.7137	-315.6400	-0.6534
30.8154	-315.6400	-0.6526
30.9151	-315.6400	-0.6519
31.0151	-315.6400	-0.6482
31.1148	-315.6400	-0.6479
31.2161	-315.6400	-0.6502
31.3157	-315.6400	-0.6483
31.4162	-315.6400	-0.6467
31.5156	-315.6400	-0.6458
31.6155	-315.6400	-0.6470
31.7163	-315.6400	-0.6464
31.8159	-315.6400	-0.6465
31.9162	-315.6400	-0.6439
32.0160	-315.6400	-0.6422
32.1155	-315.6400	-0.6403
32.2162	-315.6400	-0.6418
32.3162	-315.6400	-0.6404
32.4155	-315.6400	-0.6420
32.5155	-315.6400	-0.6406
32.6165	-315.6400	-0.6390
32.7173	-315.6400	-0.6398
32.8172	-315.6400	-0.6388
32.9173	-315.6400	-0.6353
33.0174	-315.6400	-0.6366
33.1165	-315.6400	-0.6353
33.2175	-315.6400	-0.6338
33.3185	-315.6400	-0.6332
33.4196	-315.6400	-0.6325
33.5202	-315.6400	-0.6302
33.6202	-315.6400	-0.6294
33.7198	-315.6400	-0.6301
33.8198	-315.6400	-0.6293
33.9200	-315.6400	-0.6283
34.0212	-315.6400	-0.6277
34.1212	-315.6400	-0.6277
34.2207	-315.6400	-0.6288
34.3205	-315.6400	-0.6243
34.4215	-315.6400	-0.6238
34.5216	-315.6400	-0.6252
34.6219	-315.6400	-0.6240
34.7216	-315.6400	-0.6222
34.8219	-315.6400	-0.6217
34.9216	-315.6400	-0.6229
35.0228	-315.6400	-0.6234
35.1225	-315.6400	-0.6213
35.2231	-315.6400	-0.6230
35.3236	-315.6400	-0.6211
35.4237	-315.6400	-0.6207
35.5242	-315.6400	-0.6200
35.6240	-315.6400	-0.6201
35.7237	-315.6400	-0.6197
35.8238	-315.6400	-0.6181
35.9253	-315.6400	-0.6159
36.0251	-315.6400	-0.6166
36.1263	-315.6400	-0.6170
36.2271	-315.6400	-0.6154
36.3277	-315.6400	-0.6156
36.4294	-315.6400	-0.6153
36.5291	-315.6400	-0.6122
36.6296	-315.6400	-0.6127
36.7298	-315.6400	-0.6131
36.8295	-315.6400	-0.6142
36.9315	-315.6400	-0.6132
37.0319	-315.6400	-0.6116
37.1328	-315.6400	-0.6112
37.2326	-315.6400	-0.6128
37.3333	-315.6400	-0.6100
37.4330	-315.6400	-0.6117
37.5332	-315.6400	-0.6114
37.6325	-315.6400	-0.6093
37.7343	-315.6400	-0.6096
37.8337	-315.6400	-0.6086
37.9341	-315.6400	-0.6095
38.0335	-315.6400	-0.6076
38.1336	-315.6400	-0.6079
38.2344	-315.6400	-0.6063
38.3355	-315.6400	-0.6053
38.4366	-315.6400	-0.6055
38.5371	-315.6400	-0.6063
38.6371	-315.6400	-0.6071
38.7372	-315.6400	-0.6046
38.8375	-315.6400	-0.6052
38.9378	-315.6400	-0.6087
39.0384	-315.6400	-0.6084
39.1379	-315.6400	-0.6058
39.2385	-315.6400	-0.6015
39.3387	-315.6400	-0.6024
39.4402	-315.6400	-0.6038
39.5402	-315.6400	-0.6017
39.6400	-315.6400	-0.6026
39.7398	-315.6400	-0.6011
39.8399	-315.6400	-0.6020
39.9395	-315.6400	-0.6020
40.0402	-315.6400	-0.5997
40.1400	-315.6400	-0.5995
40.2402	-315.6400	-0.5988
40.3412	-315.6400	-0.5993
40.4405	-315.6400	-0.5978
40.5413	-315.6400	-0.5977
40.6414	-315.6400	-0.5989
40.7422	-315.6400	-0.6005
40.8415	-315.6400	-0.5978
40.9416	-315.6400	-0.5963
41.0420	-315.6400	-0.5971
41.1419	-315.6400	-0.5953
41.2422	-315.6400	-0.5963
41.3423	-315.6400	-0.5962
41.4418	-315.6400	-0.5969
41.5423	-315.6400	-0.5962
41.6418	-315.6400	-0.5961
41.7415	-315.6400	-0.5968
41.8423	-315.6400	-0.5947
41.9422	-315.6400	-0.5948
42.0417	-315.6400	-0.5957
42.1420	-315.6400	-0.5954
42.2419	-315.6400	-0.5963
42.3416	-315.6400	-0.5941
42.4424	-315.6400	-0.5947
42.5418	-315.6400	-0.5934
42.6427	-315.6400	-0.5938
42.7429	-315.6400	-0.5922
42.8427	-315.6400	-0.5929
42.9435	-315.6400	-0.5929
43.0443	-315.6400	-0.5920
43.1443	-315.6400	-0.5892
43.2455	-315.6400	-0.5899
43.3450	-315.6400	-0.5915
43.4455	-315.6400	-0.5922
43.5447	-315.6400	-0.5902
43.6462	-315.6400	-0.5912
43.7458	-315.6400	-0.5908
43.8462	-315.6400	-0.5892
43.9463	-315.6400	-0.5877
44.0474	-315.6400	-0.5884
44.1478	-315.6400	-0.5919
44.2466	-315.6400	-0.5900
44.3469	-315.6400	-0.5877
44.4491	-315.6400	-0.5882
44.5478	-315.6400	-0.5875
44.6479	-315.6400	-0.5851
44.7475	-315.6400	-0.5846
44.8484	-315.6400	-0.5858
44.9479	-315.6400	-0.5865
45.0479	-315.6400	-0.5839
45.1476	-315.6400	-0.5871
45.2490	-315.6400	-0.5871
45.3489	-315.6400	-0.5817
45.4500	-315.6400	-0.5819
45.5498	-315.6400	-0.5826
45.6503	-315.6400	-0.5853
45.7498	-315.6400	-0.5836
45.8502	-315.6400	-0.5814
45.9497	-315.6400	-0.5811
46.0503	-315.6400	-0.5829
46.1499	-315.6400	-0.5827
46.2502	-315.6400	-0.5828
46.3502	-315.6400	-0.5821
46.4503	-315.6400	-0.5834
46.5503	-315.6400	-0.5829
46.6501	-315.6400	-0.5828
46.7502	-315.6400	-0.5802
46.8502	-315.6400	-0.5818
46.9497	-315.6400	-0.5789
47.0497	-315.6400	-0.5792
47.1504	-315.6400	-0.5786
47.2498	-315.6400	-0.5834
47.3508	-315.6400	-0.5816
47.4516	-315.6400	-0.5807
47.5524	-315.6400	-0.5808
47.6524	-315.6400	-0.5794
47.7519	-315.6400	-0.5794
47.8522	-315.6400	-0.5775
47.9523	-315.6400	-0.5789
48.0516	-315.6400	-0.5794
48.1520	-315.6400	-0.5783
48.2528	-315.6400	-0.5784
48.3532	-315.6400	-0.5800
48.4536	-315.6400	-0.5775
48.5549	-315.6400	-0.5770
48.6550	-315.6400	-0.5747
48.7547	-315.6400	-0.5767
48.8547	-315.6400	-0.5758
48.9557	-315.6400	-0.5739
49.0574	-315.6400	-0.5759
49.1576	-315.6400	-0.5762
49.2579	-315.6400	-0.5794
49.3584	-315.6400	-0.5773
49.4586	-315.6400	-0.5764
49.5579	-315.6400	-0.5749
49.6579	-315.6400	-0.5753
49.7595	-315.6400	-0.5746
49.8604	-315.6400	-0.5765
49.9598	-315.6400	-0.5758
50.0597	-315.6400	-0.5763
50.1602	-315.6400	-0.5746
50.2602	-315.6400	-0.5772
50.3603	-315.6400	-0.5729
50.4598	-315.6400	-0.5728
50.5614	-315.6400	-0.5733
50.6608	-315.6400	-0.5746
50.7611	-315.6400	-0.5745
50.8609	-315.6400	-0.5726
50.9624	-315.6400	-0.5731
51.0629	-315.6400	-0.5734
51.1643	-315.6400	-0.5737
51.2640	-315.6400	-0.5709
51.3655	-315.6400	-0.5710
51.4652	-315.6400	-0.5705
51.5665	-315.6400	-0.5711
51.6658	-315.6400	-0.5704
51.7660	-315.6400	-0.5734
51.8661	-315.6400	-0.5734
51.9675	-315.6400	-0.5703
52.0689	-315.6400	-0.5701
52.1679	-315.6400	-0.5709
52.2697	-315.6400	-0.5698
52.3704	-315.6400	-0.5713
52.4709	-315.6400	-0.5707
52.5707	-315.6400	-0.5714
52.6725	-315.6400	-0.5715
52.7726	-315.6400	-0.5712
52.8721	-315.6400	-0.5702
52.9716	-315.6400	-0.5695
53.0717	-315.6400	-0.5697
53.1722	-315.6400	-0.5669
53.2727	-315.6400	-0.5668
53.3738	-315.6400	-0.5679
53.4738	-315.6400	-0.5681
53.5747	-315.6400	-0.5685
53.6755	-315.6400	-0.5660
53.7748	-315.6400	-0.5690
53.8748	-315.6400	-0.5683
53.9751	-315.6400	-0.5655
54.0756	-315.6400	-0.5674
54.1754	-315.6400	-0.5689
54.2754	-315.6400	-0.5676
54.3750	-315.6400	-0.5677
54.4756	-315.6400	-0.5697
54.5751	-315.6400	-0.5677
54.6749	-315.6400	-0.5677
54.7748	-315.6400	-0.5690
54.8752	-315.6400	-0.5671
54.9756	-315.6400	-0.5659
55.0757	-315.6400	-0.5645
55.1760	-315.6400	-0.5636
55.2761	-315.6400	-0.5622
55.3765	-315.6400	-0.5622
55.4763	-315.6400	-0.5638
55.5766	-315.6400	-0.5631
55.6762	-315.6400	-0.5664
55.7765	-315.6400	-0.5618
55.8763	-315.6400	-0.5612
55.9756	-315.6400	-0.5630
56.0763	-315.6400	-0.5641
56.1765	-315.6400	-0.5606
56.2770	-315.6400	-0.5617
56.3774	-315.6400	-0.5608
56.4778	-315.6400	-0.5613
56.5786	-315.6400	-0.5583
56.6777	-315.6400	-0.5583
56.7779	-315.6400	-0.5594
56.8777	-315.6400	-0.5544
56.9792	-315.6400	-0.5565
57.0789	-315.6400	-0.5579
57.1805	-315.6400	-0.5597
57.2805	-315.6400	-0.5589
57.3806	-315.6400	-0.5593
57.4801	-315.6400	-0.5606
57.5798	-315.6400	-0.5601
57.6799	-315.6400	-0.5568
57.7797	-315.6400	-0.5580
57.8815	-315.6400	-0.5574
57.9810	-315.6400	-0.5602
58.0817	-315.6400	-0.5578
58.1825	-315.6400	-0.5575
58.2821	-315.6400	-0.5577
58.3820	-315.6400	-0.5580
58.4828	-315.6400	-0.5576
58.5825	-315.6400	-0.5572
58.6821	-315.6400	-0.5580
58.7827	-315.6400	-0.5559
58.8837	-315.6400	-0.5540
58.9844	-315.6400	-0.5577
59.0853	-315.6400	-0.5558
59.1849	-315.6400	-0.5548
59.2857	-315.6400	-0.5555
59.3866	-315.6400	-0.5576
59.4867	-315.6400	-0.5553
59.5874	-315.6400	-0.5559
59.6879	-315.6400	-0.5558
59.7879	-315.6400	-0.5547
59.8893	-315.6400	-0.5548
59.9891	-315.6400	-0.5547
60.0898	-315.6400	-0.5555
60.1897	-315.6400	-0.5562
60.2906	-315.6400	-0.5543
60.3903	-315.6400	-0.5555
60.4903	-315.6400	-0.5547
60.5898	-315.6400	-0.5541
60.6897	-315.6400	-0.5551
60.7901	-315.6400	-0.5521
60.8898	-315.6400	-0.5557
60.9902	-315.6400	-0.5542
61.0900	-315.6400	-0.5564
61.1904	-315.6400	-0.5543
61.2903	-315.6400	-0.5528
61.3904	-315.6400	-0.5535
61.4900	-315.6400	-0.5522
61.5904	-315.6400	-0.5542
61.6907	-315.6400	-0.5556
61.7913	-315.6400	-0.5526
61.8908	-315.6400	-0.5553
61.9915	-315.6400	-0.5524
62.0926	-315.6400	-0.5527
62.1926	-315.6400	-0.5513
62.2927	-315.6400	-0.5523
62.3936	-315.6400	-0.5508
62.4932	-315.6400	-0.5546
62.5935	-315.6400	-0.5529
62.6932	-315.6400	-0.5509
62.7932	-315.6400	-0.5512
62.8944	-315.6400	-0.5498
62.9941	-315.6400	-0.5493
63.0938	-315.6400	-0.5492
63.1946	-315.6400	-0.5514
63.2947	-315.6400	-0.5506
63.3955	-315.6400	-0.5503
63.4948	-315.6400	-0.5509
63.5956	-315.6400	-0.5502
63.6955	-315.6400	-0.5504
63.7956	-315.6400	-0.5504
63.8950	-315.6400	-0.5481
63.9957	-315.6400	-0.5498
64.0965	-315.6400	-0.5498
64.1958	-315.6400	-0.5522
64.2976	-315.6400	-0.5483
64.3973	-315.6400	-0.5511
64.4970	-315.6400	-0.5487
64.5978	-315.6400	-0.5513
64.6986	-315.6400	-0.5471
64.7994	-315.6400	-0.5496
64.8997	-315.6400	-0.5456
64.9998	-315.6400	-0.5472
65.1003	-315.6400	-0.5481
65.2016	-315.6400	-0.5485
65.3016	-315.6400	-0.5499
65.4010	-315.6400	-0.5471
65.5010	-315.6400	-0.5476
65.6026	-315.6400	-0.5494
65.7023	-315.6400	-0.5499
65.8019	-315.6400	-0.5492
65.9019	-315.6400	-0.5480
66.0037	-315.6400	-0.5452
66.1033	-315.6400	-0.5453
66.2034	-315.6400	-0.5429
66.3049	-315.6400	-0.5441
66.4042	-315.6400	-0.5442
66.5043	-315.6400	-0.5457
66.6038	-315.6400	-0.5467
66.7041	-315.6400	-0.5473
66.8055	-315.6400	-0.5474
66.9050	-315.6400	-0.5461
67.0064	-315.6400	-0.5438
67.1061	-315.6400	-0.5434
67.2059	-315.6400	-0.5448
67.3062	-315.6400	-0.5440
67.4062	-315.6400	-0.5444
67.5062	-315.6400	-0.5447
67.6063	-315.6400	-0.5417
67.7062	-315.6400	-0.5425
67.8076	-315.6400	-0.5447
67.9078	-315.6400	-0.5454
68.0081	-315.6400	-0.5450
68.1079	-315.6400	-0.5467
68.2081	-315.6400	-0.5443
68.3079	-315.6400	-0.5466
68.4086	-315.6400	-0.5451
68.5079	-315.6400	-0.5420
68.6078	-315.6400	-0.5418
68.7081	-315.6400	-0.5415
68.8082	-315.6400	-0.5433
68.9080	-315.6400	-0.5427
69.0080	-315.6400	-0.5437
69.1081	-315.6400	-0.5415
69.2081	-315.6400	-0.5426
69.3080	-315.6400	-0.5412
69.4081	-315.6400	-0.5407
69.5095	-315.6400	-0.5404
69.6097	-315.6400	-0.5398
69.7088	-315.6400	-0.5412
69.8095	-315.6400	-0.5412
69.9089	-315.6400	-0.5405
70.0102	-315.6400	-0.5418
70.1104	-315.6400	-0.5428
70.2105	-315.6400	-0.5420
70.3104	-315.6400	-0.5424
70.4106	-315.6400	-0.5417
70.5105	-315.6400	-0.5411
70.6115	-315.6400	-0.5424
70.7117	-315.6400	-0.5426
70.8116	-315.6400	-0.5388
70.9114	-315.6400	-0.5395
71.0116	-315.6400	-0.5413
71.1115	-315.6400	-0.5416
71.2128	-315.6400	-0.5424
71.3119	-315.6400	-0.5414
71.4120	-315.6400	-0.5404
71.5121	-315.6400	-0.5389
71.6126	-315.6400	-0.5398
71.7118	-315.6400	-0.5393
71.8124	-315.6400	-0.5389
71.9131	-315.6400	-0.5386
72.0141	-315.6400	-0.5392
72.1138	-315.6400	-0.5401
72.2138	-315.6400	-0.5397
72.3144	-315.6400	-0.5411
72.4146	-315.6400	-0.5419
72.5168	-315.6400	-0.5417
72.6150	-315.6400	-0.5396
72.7165	-315.6400	-0.5397
72.8166	-315.6400	-0.5396
72.9168	-315.6400	-0.5359
73.0160	-315.6400	-0.5389
73.1175	-315.6400	-0.5400
73.2186	-315.6400	-0.5395
73.3183	-315.6400	-0.5404
73.4181	-315.6400	-0.5390
73.5197	-315.6400	-0.5396
73.6207	-315.6400	-0.5391
73.7204	-315.6400	-0.5390
73.8201	-315.6400	-0.5393
73.9215	-315.6400	-0.5387
74.0217	-315.6400	-0.5376
74.1218	-315.6400	-0.5395
74.2228	-315.6400	-0.5381
74.3236	-315.6400	-0.5398
74.4237	-315.6400	-0.5395
74.5237	-315.6400	-0.5392
74.6231	-315.6400	-0.5391
74.7229	-315.6400	-0.5393
74.8240	-315.6400	-0.5371
74.9247	-315.6400	-0.5387
75.0247	-315.6400	-0.5409
75.1246	-315.6400	-0.5395
