4/12/2023 4:49:00 pm
Time(s)	Displacement(mm)	Force(N)
0.0000	-266.9280	1.1656
0.1199	-267.3380	1.1728
0.2195	-268.0240	1.1673
0.3194	-268.6730	1.1607
0.4203	-269.3570	1.1559
0.5209	-270.0060	1.1510
0.6207	-270.6900	1.1547
0.7213	-271.3740	1.1507
0.8213	-272.0230	1.1571
0.9213	-272.7070	1.1592
1.0221	-273.3560	1.1564
1.1240	-274.0400	1.1595
1.2233	-274.6890	1.1613
1.3237	-275.3730	1.1605
1.4241	-276.0560	1.1659
1.5269	-276.7400	1.1670
1.6255	-277.3900	1.1655
1.7255	-278.0390	1.1704
1.8251	-278.7220	1.1720
1.9264	-279.4060	1.1808
2.0272	-280.0550	1.1784
2.1272	-280.7390	1.1861
2.2271	-281.4230	1.1904
2.3279	-282.0720	1.1922
2.4276	-282.7210	1.1943
2.5273	-283.4050	1.1998
2.6271	-284.0540	1.2031
2.7280	-284.7380	1.2078
2.8271	-285.3870	1.2095
2.9272	-286.0710	1.2167
3.0276	-286.7200	1.2214
3.1280	-287.4040	1.2258
3.2281	-288.0530	1.2344
3.3291	-288.7400	1.2377
3.4294	-289.4250	1.2428
3.5294	-290.0750	1.2493
3.6294	-290.7590	1.2549
3.7291	-291.4080	1.2589
3.8302	-292.0910	1.2657
3.9303	-292.7410	1.2701
4.0306	-293.4240	1.2723
4.1313	-294.1080	1.2793
4.2314	-294.7580	1.2850
4.3313	-295.4410	1.2856
4.4317	-296.0900	1.2900
4.5313	-296.7740	1.2891
4.6322	-297.4240	1.2890
4.7343	-298.1070	1.2858
4.8343	-298.7910	1.2767
4.9343	-299.4400	1.2750
5.0349	-300.1240	1.2657
5.1348	-300.7730	1.2478
5.2350	-301.4600	1.2319
5.3346	-302.1080	1.2094
5.4361	-302.7930	1.1714
5.5359	-303.4420	1.1289
5.6358	-304.1250	1.0794
5.7361	-304.8090	1.0177
5.8369	-305.4580	0.9400
5.9366	-306.1420	0.8427
6.0376	-306.7910	0.7303
6.1377	-307.4750	0.5852
6.2379	-308.1580	0.4199
6.3379	-308.8080	0.2210
6.4373	-309.4570	-0.0212
6.5373	-310.1410	-0.2971
6.6380	-310.7900	-0.6297
6.7374	-311.4740	-1.0213
6.8389	-312.1580	-1.4796
6.9392	-312.8070	-2.0183
7.0394	-313.4910	-2.6398
7.1402	-314.1400	-3.3526
7.2414	-314.8230	-4.1561
7.3412	-315.5070	-5.0509
7.4416	-316.1570	-6.0906
7.5414	-316.7780	-6.9819
7.6421	-316.8010	-6.9442
7.7414	-316.8010	-6.8851
7.8411	-316.8010	-6.8496
7.9418	-316.8010	-6.8263
8.0424	-316.8000	-6.8063
8.1426	-316.8000	-6.7892
8.2444	-316.8000	-6.7775
8.3434	-316.8000	-6.7635
8.4433	-316.8000	-6.7543
8.5433	-316.8000	-6.7445
8.6432	-316.8000	-6.7377
8.7435	-316.8000	-6.7279
8.8439	-316.8000	-6.7211
8.9441	-316.8000	-6.7150
9.0437	-316.8000	-6.7101
9.1434	-316.8000	-6.7052
9.2433	-316.8000	-6.7000
9.3432	-316.8000	-6.6971
9.4461	-316.8000	-6.6908
9.5451	-316.8000	-6.6845
9.6461	-316.8000	-6.6818
9.7452	-316.8000	-6.6805
9.8457	-316.8000	-6.6741
9.9455	-316.8000	-6.6711
10.0461	-316.8000	-6.6660
10.1463	-316.8000	-6.6645
10.2466	-316.8000	-6.6630
10.3472	-316.8000	-6.6552
10.4473	-316.8000	-6.6538
10.5473	-316.8000	-6.6530
10.6473	-316.8000	-6.6501
10.7475	-316.8000	-6.6495
10.8473	-316.8000	-6.6473
10.9477	-316.8000	-6.6456
11.0477	-316.8000	-6.6395
11.1475	-316.8000	-6.6388
11.2485	-316.8000	-6.6344
11.3487	-316.8000	-6.6339
11.4488	-316.8000	-6.6296
11.5489	-316.8000	-6.6274
11.6483	-316.8000	-6.6298
11.7487	-316.8000	-6.6249
11.8487	-316.8000	-6.6263
11.9485	-316.8000	-6.6211
12.0487	-316.8000	-6.6199
12.1488	-316.8000	-6.6198
12.2484	-316.8000	-6.6185
12.3487	-316.8000	-6.6145
12.4487	-316.8000	-6.6145
12.5488	-316.8000	-6.6104
12.6488	-316.8000	-6.6100
12.7488	-316.8000	-6.6125
12.8494	-316.8000	-6.6084
12.9492	-316.8000	-6.6060
13.0495	-316.8000	-6.6047
13.1494	-316.8000	-6.6045
13.2493	-316.8000	-6.6016
13.3492	-316.8000	-6.6013
13.4492	-316.8000	-6.6014
13.5493	-316.8000	-6.5980
13.6509	-316.8000	-6.5998
13.7505	-316.8000	-6.5947
13.8502	-316.8000	-6.5959
13.9505	-316.8000	-6.5928
14.0508	-316.8000	-6.5935
14.1502	-316.8000	-6.5912
14.2507	-316.8000	-6.5896
14.3504	-316.8000	-6.5902
14.4511	-316.8000	-6.5878
14.5506	-316.8000	-6.5871
14.6503	-316.8000	-6.5837
14.7507	-316.8000	-6.5809
14.8517	-316.8000	-6.5810
14.9528	-316.8000	-6.5792
15.0533	-316.8000	-6.5820
15.1548	-316.8000	-6.5812
15.2547	-316.8000	-6.5792
15.3543	-316.8000	-6.5783
15.4550	-316.8000	-6.5810
15.5543	-316.8000	-6.5789
15.6546	-316.8000	-6.5772
15.7548	-316.8000	-6.5746
15.8550	-316.8000	-6.5736
15.9554	-316.8000	-6.5710
16.0559	-316.8000	-6.5698
16.1560	-316.8000	-6.5705
16.2553	-316.8000	-6.5705
16.3562	-316.8000	-6.5686
16.4553	-316.8000	-6.5643
16.5558	-316.8000	-6.5671
16.6555	-316.8000	-6.5668
16.7558	-316.8000	-6.5648
16.8558	-316.8000	-6.5633
16.9554	-316.8000	-6.5661
17.0554	-316.8000	-6.5644
17.1561	-316.8000	-6.5621
17.2562	-316.8000	-6.5604
17.3555	-316.8000	-6.5607
17.4554	-316.8000	-6.5561
17.5557	-316.8000	-6.5582
17.6558	-316.8000	-6.5524
17.7552	-316.8000	-6.5553
17.8554	-316.8000	-6.5552
17.9557	-316.8000	-6.5533
18.0553	-316.8000	-6.5550
18.1558	-316.8000	-6.5533
18.2560	-316.8000	-6.5519
18.3558	-316.8000	-6.5485
18.4567	-316.8000	-6.5501
18.5571	-316.8000	-6.5488
18.6567	-316.8000	-6.5505
18.7565	-316.8000	-6.5472
18.8571	-316.8000	-6.5501
18.9581	-316.8000	-6.5468
19.0579	-316.8000	-6.5463
19.1573	-316.8000	-6.5476
19.2573	-316.8000	-6.5484
19.3583	-316.8000	-6.5476
19.4584	-316.8000	-6.5469
19.5602	-316.8000	-6.5467
19.6599	-316.8000	-6.5431
19.7602	-316.8000	-6.5427
19.8596	-316.8000	-6.5414
19.9596	-316.8000	-6.5405
20.0596	-316.8000	-6.5414
20.1593	-316.8000	-6.5448
20.2605	-316.8000	-6.5413
20.3603	-316.8000	-6.5398
20.4616	-316.8000	-6.5381
20.5618	-316.8000	-6.5402
20.6615	-316.8000	-6.5423
20.7617	-316.8000	-6.5359
20.8614	-316.8000	-6.5407
20.9621	-316.8000	-6.5348
21.0627	-316.8000	-6.5352
21.1628	-316.8000	-6.5337
21.2637	-316.8000	-6.5335
21.3645	-316.8000	-6.5332
21.4649	-316.8000	-6.5353
21.5651	-316.8000	-6.5294
21.6648	-316.8000	-6.5292
21.7644	-316.8000	-6.5303
21.8652	-316.8000	-6.5309
21.9655	-316.8000	-6.5328
22.0665	-316.8000	-6.5310
22.1664	-316.8000	-6.5287
22.2665	-316.8000	-6.5293
22.3668	-316.8000	-6.5291
22.4670	-316.8000	-6.5266
22.5671	-316.8000	-6.5261
22.6671	-316.8000	-6.5264
22.7670	-316.8000	-6.5212
22.8675	-316.8000	-6.5237
22.9682	-316.8000	-6.5252
23.0680	-316.8000	-6.5243
23.1675	-316.8000	-6.5253
23.2678	-316.8000	-6.5211
23.3682	-316.8000	-6.5250
23.4684	-316.8000	-6.5223
23.5695	-316.8000	-6.5251
23.6698	-316.8000	-6.5202
23.7697	-316.8000	-6.5199
23.8695	-316.8000	-6.5214
23.9696	-316.8000	-6.5204
24.0696	-316.8000	-6.5170
24.1697	-316.8000	-6.5204
24.2694	-316.8000	-6.5178
24.3696	-316.8000	-6.5175
24.4695	-316.8000	-6.5145
24.5696	-316.8000	-6.5157
24.6696	-316.8000	-6.5161
24.7696	-316.8000	-6.5154
24.8710	-316.8000	-6.5110
24.9707	-316.8000	-6.5147
25.0705	-316.8000	-6.5157
25.1714	-316.8000	-6.5163
25.2715	-316.8000	-6.5124
25.3720	-316.8000	-6.5118
25.4718	-316.8000	-6.5117
25.5716	-316.8000	-6.5095
25.6719	-316.8000	-6.5094
25.7714	-316.8000	-6.5081
25.8725	-316.8000	-6.5119
25.9741	-316.8000	-6.5089
26.0736	-316.8000	-6.5080
26.1737	-316.8000	-6.5093
26.2745	-316.8000	-6.5085
26.3744	-316.8000	-6.5083
26.4756	-316.8000	-6.5073
26.5764	-316.8000	-6.5091
26.6765	-316.8000	-6.5111
26.7764	-316.8000	-6.5073
26.8771	-316.8000	-6.5069
26.9763	-316.8000	-6.5063
27.0764	-316.8000	-6.5066
27.1764	-316.8000	-6.5035
27.2780	-316.8000	-6.5035
27.3774	-316.8000	-6.5027
27.4794	-316.8000	-6.5068
27.5791	-316.8000	-6.5041
27.6791	-316.8000	-6.5041
27.7785	-316.8000	-6.5023
27.8786	-316.8000	-6.5017
27.9791	-316.8000	-6.5022
28.0788	-316.8000	-6.5015
28.1803	-316.8000	-6.5020
28.2796	-316.8000	-6.5018
28.3796	-316.8000	-6.5026
28.4794	-316.8000	-6.5002
28.5794	-316.8000	-6.4994
28.6796	-316.8000	-6.5008
28.7794	-316.8000	-6.4968
28.8794	-316.8000	-6.4987
28.9796	-316.8000	-6.4960
29.0796	-316.8000	-6.4984
29.1797	-316.8000	-6.4947
29.2794	-316.8000	-6.4975
29.3796	-316.8000	-6.4958
29.4796	-316.8000	-6.4943
29.5796	-316.8000	-6.4925
29.6795	-316.8000	-6.4941
29.7796	-316.8000	-6.4960
29.8796	-316.8000	-6.4942
29.9796	-316.8000	-6.4942
30.0795	-316.8000	-6.4940
30.1811	-316.8000	-6.4931
30.2808	-316.8000	-6.4915
30.3806	-316.8000	-6.4911
30.4823	-316.8000	-6.4913
30.5817	-316.8000	-6.4933
30.6819	-316.8000	-6.4917
30.7816	-316.8000	-6.4891
30.8815	-316.8000	-6.4933
30.9818	-316.8000	-6.4932
31.0814	-316.8000	-6.4925
31.1817	-316.8000	-6.4910
31.2831	-316.8000	-6.4885
31.3826	-316.8000	-6.4889
31.4833	-316.8000	-6.4905
31.5833	-316.8000	-6.4873
31.6827	-316.8000	-6.4896
31.7837	-316.8000	-6.4865
31.8844	-316.8000	-6.4914
31.9851	-316.8000	-6.4887
32.0844	-316.8000	-6.4902
32.1850	-316.8000	-6.4885
32.2847	-316.8000	-6.4841
32.3853	-316.8000	-6.4870
32.4846	-316.8000	-6.4843
32.5852	-316.8000	-6.4868
32.6844	-316.8000	-6.4851
32.7846	-316.8000	-6.4829
32.8873	-316.8000	-6.4842
32.9870	-316.8000	-6.4815
33.0869	-316.8000	-6.4828
33.1869	-316.8000	-6.4825
33.2865	-316.8000	-6.4825
33.3866	-316.8000	-6.4811
33.4871	-316.8000	-6.4809
33.5864	-316.8000	-6.4811
33.6870	-316.8000	-6.4804
33.7869	-316.8000	-6.4812
33.8870	-316.8000	-6.4823
33.9864	-316.8000	-6.4820
34.0877	-316.8000	-6.4833
34.1873	-316.8000	-6.4786
34.2865	-316.8000	-6.4801
34.3865	-316.8000	-6.4811
34.4873	-316.8000	-6.4820
34.5871	-316.8000	-6.4798
34.6887	-316.8000	-6.4800
34.7875	-316.8000	-6.4814
34.8883	-316.8000	-6.4786
34.9881	-316.8000	-6.4796
35.0874	-316.8000	-6.4824
35.1874	-316.8000	-6.4781
35.2875	-316.8000	-6.4840
35.3883	-316.8000	-6.4784
35.4888	-316.8000	-6.4771
35.5890	-316.8000	-6.4799
35.6887	-316.8000	-6.4799
35.7885	-316.8000	-6.4772
35.8884	-316.8000	-6.4820
35.9891	-316.8000	-6.4790
36.0900	-316.8000	-6.4786
36.1898	-316.8000	-6.4817
36.2894	-316.8000	-6.4775
36.3899	-316.8000	-6.4734
36.4897	-316.8000	-6.4735
36.5911	-316.8000	-6.4743
36.6910	-316.8000	-6.4732
36.7912	-316.8000	-6.4719
36.8923	-316.8000	-6.4733
36.9918	-316.8000	-6.4735
37.0921	-316.8000	-6.4740
37.1922	-316.8000	-6.4736
37.2919	-316.8000	-6.4758
37.3921	-316.8000	-6.4718
37.4931	-316.8000	-6.4724
37.5933	-316.8000	-6.4720
37.6941	-316.8000	-6.4711
37.7943	-316.8000	-6.4712
37.8935	-316.8000	-6.4709
37.9940	-316.8000	-6.4685
38.0941	-316.8000	-6.4695
38.1944	-316.8000	-6.4701
38.2956	-316.8000	-6.4691
38.3960	-316.8000	-6.4700
38.4966	-316.8000	-6.4702
38.5964	-316.8000	-6.4676
38.6969	-316.8000	-6.4673
38.7975	-316.8000	-6.4655
38.8981	-316.8000	-6.4657
38.9974	-316.8000	-6.4675
39.0980	-316.8000	-6.4686
39.1977	-316.8000	-6.4687
39.2992	-316.8000	-6.4650
39.3994	-316.8000	-6.4677
39.5006	-316.8000	-6.4650
39.6015	-316.8000	-6.4663
39.7028	-316.8000	-6.4661
39.8020	-316.8000	-6.4652
39.9017	-316.8000	-6.4681
40.0014	-316.8000	-6.4657
40.1027	-316.8000	-6.4671
40.2032	-316.8000	-6.4634
40.3031	-316.8000	-6.4636
40.4025	-316.8000	-6.4625
40.5026	-316.8000	-6.4628
40.6032	-316.8000	-6.4630
40.7029	-316.8000	-6.4651
40.8046	-316.8000	-6.4624
40.9049	-316.8000	-6.4659
41.0047	-316.8000	-6.4609
41.1054	-316.8000	-6.4611
41.2044	-316.8000	-6.4598
41.3050	-316.8000	-6.4602
41.4055	-316.8000	-6.4614
41.5055	-316.8000	-6.4594
41.6057	-316.8000	-6.4593
41.7066	-316.8000	-6.4584
41.8070	-316.8000	-6.4610
41.9065	-316.8000	-6.4617
42.0075	-316.8000	-6.4588
42.1083	-316.8000	-6.4581
42.2076	-316.8000	-6.4591
42.3085	-316.8000	-6.4582
42.4091	-316.8000	-6.4569
42.5092	-316.8000	-6.4578
42.6086	-316.8000	-6.4592
42.7091	-316.8000	-6.4598
42.8090	-316.8000	-6.4586
42.9093	-316.8000	-6.4579
43.0094	-316.8000	-6.4571
43.1089	-316.8000	-6.4583
43.2092	-316.8000	-6.4571
43.3093	-316.8000	-6.4566
43.4092	-316.8000	-6.4594
43.5085	-316.8000	-6.4567
43.6093	-316.8000	-6.4560
43.7090	-316.8000	-6.4529
43.8092	-316.8000	-6.4556
43.9094	-316.8000	-6.4580
44.0089	-316.8000	-6.4585
44.1093	-316.8000	-6.4582
44.2090	-316.8000	-6.4576
44.3091	-316.8000	-6.4573
44.4100	-316.8000	-6.4566
44.5096	-316.8000	-6.4548
44.6098	-316.8000	-6.4567
44.7098	-316.8000	-6.4550
44.8109	-316.8000	-6.4569
44.9112	-316.8000	-6.4547
45.0119	-316.8000	-6.4540
45.1116	-316.8000	-6.4546
45.2132	-316.8000	-6.4551
45.3132	-316.8000	-6.4536
45.4127	-316.8000	-6.4561
45.5126	-316.8000	-6.4565
45.6131	-316.8000	-6.4550
45.7133	-316.8000	-6.4525
45.8127	-316.8000	-6.4548
45.9139	-316.8000	-6.4552
46.0138	-316.8000	-6.4511
46.1153	-316.8000	-6.4523
46.2145	-316.8000	-6.4492
46.3152	-316.8000	-6.4491
46.4164	-316.8000	-6.4506
46.5172	-316.8000	-6.4499
46.6166	-316.8000	-6.4497
46.7169	-316.8000	-6.4493
46.8165	-316.8000	-6.4511
46.9166	-316.8000	-6.4486
47.0181	-316.8000	-6.4487
47.1180	-316.8000	-6.4483
47.2184	-316.8000	-6.4517
47.3175	-316.8000	-6.4500
47.4175	-316.8000	-6.4485
47.5175	-316.8000	-6.4501
47.6177	-316.8000	-6.4472
47.7178	-316.8000	-6.4466
47.8180	-316.8000	-6.4443
47.9182	-316.8000	-6.4462
48.0186	-316.8000	-6.4442
48.1188	-316.8000	-6.4494
48.2195	-316.8000	-6.4481
48.3196	-316.8000	-6.4464
48.4198	-316.8000	-6.4474
48.5198	-316.8000	-6.4461
48.6199	-316.8000	-6.4464
48.7196	-316.8000	-6.4524
48.8198	-316.8000	-6.4530
48.9196	-316.8000	-6.4509
49.0202	-316.8000	-6.4481
49.1195	-316.8000	-6.4455
49.2198	-316.8000	-6.4439
49.3199	-316.8000	-6.4461
49.4195	-316.8000	-6.4453
49.5198	-316.8000	-6.4431
49.6199	-316.8000	-6.4466
49.7199	-316.8000	-6.4488
49.8212	-316.8000	-6.4435
49.9210	-316.8000	-6.4478
50.0214	-316.8000	-6.4446
50.1214	-316.8000	-6.4440
50.2207	-316.8000	-6.4440
50.3219	-316.8000	-6.4398
50.4222	-316.8000	-6.4393
50.5219	-316.8000	-6.4434
50.6218	-316.8000	-6.4410
50.7220	-316.8000	-6.4430
50.8216	-316.8000	-6.4428
50.9215	-316.8000	-6.4404
51.0220	-316.8000	-6.4389
51.1223	-316.8000	-6.4425
51.2222	-316.8000	-6.4422
51.3216	-316.8000	-6.4409
51.4215	-316.8000	-6.4400
51.5218	-316.8000	-6.4407
51.6235	-316.8000	-6.4395
51.7232	-316.8000	-6.4372
51.8229	-316.8000	-6.4400
51.9226	-316.8000	-6.4392
52.0233	-316.8000	-6.4426
52.1236	-316.8000	-6.4388
52.2235	-316.8000	-6.4397
52.3239	-316.8000	-6.4385
52.4246	-316.8000	-6.4399
52.5255	-316.8000	-6.4347
52.6246	-316.8000	-6.4387
52.7246	-316.8000	-6.4411
52.8250	-316.8000	-6.4412
52.9251	-316.8000	-6.4385
53.0250	-316.8000	-6.4414
53.1246	-316.8000	-6.4345
53.2250	-316.8000	-6.4393
53.3251	-316.8000	-6.4345
53.4265	-316.8000	-6.4341
53.5275	-316.8000	-6.4365
53.6272	-316.8000	-6.4356
53.7271	-316.8000	-6.4360
53.8280	-316.8000	-6.4367
53.9280	-316.8000	-6.4360
54.0283	-316.8000	-6.4362
54.1277	-316.8000	-6.4358
54.2278	-316.8000	-6.4361
54.3276	-316.8000	-6.4348
54.4284	-316.8000	-6.4365
54.5277	-316.8000	-6.4334
54.6284	-316.8000	-6.4354
54.7282	-316.8000	-6.4349
54.8283	-316.8000	-6.4349
54.9278	-316.8000	-6.4316
55.0283	-316.8000	-6.4329
55.1280	-316.8000	-6.4348
55.2284	-316.8000	-6.4341
55.3286	-316.8000	-6.4356
55.4296	-316.8000	-6.4317
55.5297	-316.8000	-6.4324
55.6296	-316.8000	-6.4314
55.7296	-316.8000	-6.4321
55.8299	-316.8000	-6.4331
55.9299	-316.8000	-6.4302
56.0297	-316.8000	-6.4351
56.1299	-316.8000	-6.4346
56.2299	-316.8000	-6.4333
56.3299	-316.8000	-6.4325
56.4298	-316.8000	-6.4306
56.5299	-316.8000	-6.4330
56.6297	-316.8000	-6.4331
56.7297	-316.8000	-6.4310
56.8300	-316.8000	-6.4318
56.9297	-316.8000	-6.4292
57.0300	-316.8000	-6.4296
57.1308	-316.8000	-6.4312
57.2316	-316.8000	-6.4301
57.3322	-316.8000	-6.4312
57.4324	-316.8000	-6.4283
57.5321	-316.8000	-6.4299
57.6323	-316.8000	-6.4292
57.7320	-316.8000	-6.4302
57.8336	-316.8000	-6.4299
57.9340	-316.8000	-6.4319
58.0345	-316.8000	-6.4326
58.1351	-316.8000	-6.4324
58.2346	-316.8000	-6.4304
58.3356	-316.8000	-6.4275
58.4358	-316.8000	-6.4330
58.5368	-316.8000	-6.4274
58.6372	-316.8000	-6.4303
58.7373	-316.8000	-6.4273
58.8376	-316.8000	-6.4314
58.9383	-316.8000	-6.4303
59.0384	-316.8000	-6.4307
59.1396	-316.8000	-6.4279
59.2397	-316.8000	-6.4305
59.3399	-316.8000	-6.4279
59.4397	-316.8000	-6.4301
59.5397	-316.8000	-6.4261
59.6413	-316.8000	-6.4295
59.7410	-316.8000	-6.4280
59.8407	-316.8000	-6.4264
59.9415	-316.8000	-6.4268
60.0417	-316.8000	-6.4279
60.1421	-316.8000	-6.4279
60.2424	-316.8000	-6.4276
60.3427	-316.8000	-6.4245
60.4426	-316.8000	-6.4252
60.5435	-316.8000	-6.4272
60.6428	-316.8000	-6.4276
60.7443	-316.8000	-6.4236
60.8445	-316.8000	-6.4288
60.9441	-316.8000	-6.4259
61.0449	-316.8000	-6.4237
61.1450	-316.8000	-6.4236
61.2455	-316.8000	-6.4215
61.3451	-316.8000	-6.4235
61.4449	-316.8000	-6.4247
61.5452	-316.8000	-6.4235
61.6447	-316.8000	-6.4235
61.7464	-316.8000	-6.4220
61.8463	-316.8000	-6.4230
61.9463	-316.8000	-6.4234
62.0463	-316.8000	-6.4229
62.1461	-316.8000	-6.4217
62.2462	-316.8000	-6.4214
62.3459	-316.8000	-6.4232
62.4460	-316.8000	-6.4209
62.5469	-316.8000	-6.4222
62.6482	-316.8000	-6.4228
62.7478	-316.8000	-6.4219
62.8488	-316.8000	-6.4220
62.9495	-316.8000	-6.4235
63.0493	-316.8000	-6.4232
63.1495	-316.8000	-6.4205
63.2487	-316.8000	-6.4227
63.3488	-316.8000	-6.4234
63.4496	-316.8000	-6.4222
63.5495	-316.8000	-6.4209
63.6505	-316.8000	-6.4183
63.7499	-316.8000	-6.4212
63.8499	-316.8000	-6.4239
63.9496	-316.8000	-6.4188
64.0498	-316.8000	-6.4188
64.1505	-316.8000	-6.4198
64.2499	-316.8000	-6.4187
64.3498	-316.8000	-6.4191
64.4500	-316.8000	-6.4196
64.5500	-316.8000	-6.4182
64.6497	-316.8000	-6.4176
64.7497	-316.8000	-6.4188
64.8499	-316.8000	-6.4173
64.9508	-316.8000	-6.4183
65.0517	-316.8000	-6.4173
65.1524	-316.8000	-6.4163
65.2517	-316.8000	-6.4199
65.3521	-316.8000	-6.4193
65.4534	-316.8000	-6.4182
65.5536	-316.8000	-6.4201
65.6527	-316.8000	-6.4194
65.7527	-316.8000	-6.4183
65.8531	-316.8000	-6.4154
65.9545	-316.8000	-6.4181
66.0546	-316.8000	-6.4162
66.1537	-316.8000	-6.4149
66.2540	-316.8000	-6.4151
66.3556	-316.8000	-6.4142
66.4557	-316.8000	-6.4144
66.5556	-316.8000	-6.4146
66.6559	-316.8000	-6.4132
66.7563	-316.8000	-6.4138
66.8557	-316.8000	-6.4145
66.9559	-316.8000	-6.4105
67.0558	-316.8000	-6.4152
67.1577	-316.8000	-6.4141
67.2576	-316.8000	-6.4143
67.3577	-316.8000	-6.4142
67.4578	-316.8000	-6.4124
67.5586	-316.8000	-6.4130
67.6583	-316.8000	-6.4112
67.7582	-316.8000	-6.4127
67.8581	-316.8000	-6.4117
67.9585	-316.8000	-6.4119
68.0582	-316.8000	-6.4072
68.1584	-316.8000	-6.4094
68.2596	-316.8000	-6.4087
68.3593	-316.8000	-6.4120
68.4605	-316.8000	-6.4096
68.5614	-316.8000	-6.4079
68.6607	-316.8000	-6.4133
68.7618	-316.8000	-6.4127
68.8617	-316.8000	-6.4105
68.9618	-316.8000	-6.4110
69.0624	-316.8000	-6.4135
69.1623	-316.8000	-6.4124
69.2617	-316.8000	-6.4117
69.3636	-316.8000	-6.4114
69.4636	-316.8000	-6.4107
69.5634	-316.8000	-6.4117
69.6629	-316.8000	-6.4103
69.7631	-316.8000	-6.4110
69.8630	-316.8000	-6.4097
69.9631	-316.8000	-6.4112
70.0632	-316.8000	-6.4118
70.1636	-316.8000	-6.4093
70.2645	-316.8000	-6.4109
70.3648	-316.8000	-6.4106
70.4657	-316.8000	-6.4130
70.5677	-316.8000	-6.4116
70.6678	-316.8000	-6.4082
70.7689	-316.8000	-6.4103
70.8689	-316.8000	-6.4082
70.9698	-316.8000	-6.4091
71.0700	-316.8000	-6.4080
71.1705	-316.8000	-6.4074
71.2700	-316.8000	-6.4088
71.3701	-316.8000	-6.4048
71.4706	-316.8000	-6.4063
71.5701	-316.8000	-6.4064
71.6700	-316.8000	-6.4127
71.7698	-316.8000	-6.4043
71.8702	-316.8000	-6.4062
71.9706	-316.8000	-6.4060
72.0701	-316.8000	-6.4057
72.1699	-316.8000	-6.4057
72.2700	-316.8000	-6.4070
72.3700	-316.8000	-6.4070
72.4716	-316.8000	-6.4050
72.5713	-316.8000	-6.4066
72.6717	-316.8000	-6.4048
72.7716	-316.8000	-6.4024
72.8713	-316.8000	-6.4031
72.9710	-316.8000	-6.4021
73.0713	-316.8000	-6.4078
73.1712	-316.8000	-6.4037
73.2709	-316.8000	-6.4034
73.3707	-316.8000	-6.4066
73.4725	-316.8000	-6.4063
73.5718	-316.8000	-6.4069
73.6737	-316.8000	-6.4065
73.7735	-316.8000	-6.4046
73.8728	-316.8000	-6.4081
73.9730	-316.8000	-6.4075
74.0736	-316.8000	-6.4039
74.1736	-316.8000	-6.4052
74.2728	-316.8000	-6.4038
74.3735	-316.8000	-6.3993
74.4736	-316.8000	-6.4025
