4/12/2023 4:44:02 pm
Time(s)	Displacement(mm)	Force(N)
0.0000	-266.9620	1.1273
0.1215	-267.3430	1.1408
0.2214	-268.0290	1.1425
0.3227	-268.7120	1.1412
0.4235	-269.3620	1.1430
0.5239	-270.0480	1.1430
0.6241	-270.7320	1.1421
0.7236	-271.3810	1.1381
0.8244	-272.0310	1.1399
0.9250	-272.7170	1.1470
1.0251	-273.3660	1.1468
1.1248	-274.0500	1.1463
1.2250	-274.6990	1.1467
1.3256	-275.3850	1.1539
1.4261	-276.0680	1.1586
1.5261	-276.7180	1.1609
1.6264	-277.4020	1.1596
1.7269	-278.0510	1.1618
1.8269	-278.7350	1.1678
1.9268	-279.4180	1.1674
2.0281	-280.0670	1.1693
2.1279	-280.7170	1.1771
2.2275	-281.4030	1.1849
2.3293	-282.0870	1.1839
2.4287	-282.7360	1.1834
2.5290	-283.4200	1.1855
2.6287	-284.0690	1.1933
2.7285	-284.7530	1.1959
2.8302	-285.4020	1.1980
2.9299	-286.0860	1.2017
3.0294	-286.7350	1.2075
3.1298	-287.4210	1.2153
3.2312	-288.1050	1.2144
3.3307	-288.7540	1.2209
3.4303	-289.4380	1.2236
3.5309	-290.0870	1.2332
3.6306	-290.7710	1.2322
3.7303	-291.4200	1.2363
3.8306	-292.0690	1.2414
3.9306	-292.7560	1.2500
4.0319	-293.4390	1.2506
4.1319	-294.0890	1.2539
4.2314	-294.7720	1.2585
4.3313	-295.4220	1.2585
4.4318	-296.1050	1.2599
4.5315	-296.7550	1.2600
4.6324	-297.4380	1.2579
4.7338	-298.1220	1.2495
4.8350	-298.7710	1.2441
4.9358	-299.4550	1.2327
5.0358	-300.1390	1.2240
5.1372	-300.7880	1.2050
5.2371	-301.4720	1.1820
5.3368	-302.1210	1.1513
5.4371	-302.8050	1.1147
5.5382	-303.4540	1.0650
5.6378	-304.1370	1.0104
5.7390	-304.8210	0.9440
5.8401	-305.4710	0.8606
5.9412	-306.1540	0.7602
6.0421	-306.8370	0.6366
6.1430	-307.4870	0.4883
6.2430	-308.1730	0.3156
6.3429	-308.8220	0.1060
6.4428	-309.5060	-0.1398
6.5442	-310.1900	-0.4289
6.6451	-310.8730	-0.7725
6.7461	-311.5230	-1.1748
6.8462	-312.1720	-1.6447
6.9462	-312.8560	-2.1938
7.0456	-313.5050	-2.8299
7.1458	-314.1910	-3.5562
7.2460	-314.8400	-4.3786
7.3463	-315.5260	-5.2850
7.4463	-316.1760	-6.3408
7.5466	-316.7840	-7.2165
7.6473	-316.8010	-7.1683
7.7474	-316.8010	-7.1097
7.8477	-316.8010	-7.0730
7.9479	-316.8010	-7.0461
8.0485	-316.8010	-7.0249
8.1503	-316.8000	-7.0068
8.2500	-316.8000	-6.9938
8.3496	-316.8000	-6.9827
8.4497	-316.8000	-6.9699
8.5496	-316.8000	-6.9642
8.6497	-316.8000	-6.9560
8.7508	-316.8000	-6.9462
8.8522	-316.8000	-6.9386
8.9526	-316.8000	-6.9310
9.0534	-316.8000	-6.9281
9.1540	-316.8000	-6.9211
9.2544	-316.8000	-6.9141
9.3551	-316.8000	-6.9104
9.4550	-316.8000	-6.9063
9.5554	-316.8000	-6.9026
9.6566	-316.8000	-6.9020
9.7571	-316.8000	-6.8945
9.8578	-316.8000	-6.8934
9.9589	-316.8000	-6.8878
10.0595	-316.8000	-6.8826
10.1598	-316.8000	-6.8827
10.2597	-316.8000	-6.8785
10.3597	-316.8000	-6.8722
10.4597	-316.8000	-6.8697
10.5602	-316.8000	-6.8681
10.6598	-316.8000	-6.8636
10.7596	-316.8000	-6.8614
10.8597	-316.8000	-6.8548
10.9594	-316.8000	-6.8572
11.0596	-316.8000	-6.8530
11.1596	-316.8000	-6.8497
11.2610	-316.8000	-6.8485
11.3606	-316.8000	-6.8492
11.4608	-316.8000	-6.8450
11.5608	-316.8000	-6.8407
11.6609	-316.8000	-6.8415
11.7605	-316.8000	-6.8367
11.8609	-316.8000	-6.8336
11.9610	-316.8000	-6.8308
12.0617	-316.8000	-6.8285
12.1619	-316.8000	-6.8253
12.2617	-316.8000	-6.8260
12.3627	-316.8000	-6.8274
12.4628	-316.8000	-6.8217
12.5633	-316.8000	-6.8179
12.6627	-316.8000	-6.8200
12.7639	-316.8000	-6.8161
12.8645	-316.8000	-6.8208
12.9649	-316.8000	-6.8197
13.0656	-316.8000	-6.8099
13.1663	-316.8000	-6.8105
13.2661	-316.8000	-6.8103
13.3667	-316.8000	-6.8081
13.4669	-316.8000	-6.8048
13.5666	-316.8000	-6.8056
13.6669	-316.8000	-6.8026
13.7675	-316.8000	-6.8029
13.8689	-316.8000	-6.8028
13.9700	-316.8000	-6.7991
14.0713	-316.8000	-6.7985
14.1720	-316.8000	-6.7968
14.2717	-316.8000	-6.7975
14.3719	-316.8000	-6.7957
14.4715	-316.8000	-6.7936
14.5741	-316.8000	-6.7883
14.6751	-316.8000	-6.7891
14.7746	-316.8000	-6.7893
14.8765	-316.8000	-6.7889
14.9773	-316.8000	-6.7918
15.0768	-316.8000	-6.7860
15.1765	-316.8000	-6.7869
15.2770	-316.8000	-6.7858
15.3771	-316.8000	-6.7880
15.4771	-316.8000	-6.7815
15.5771	-316.8000	-6.7795
15.6768	-316.8000	-6.7797
15.7767	-316.8000	-6.7787
15.8767	-316.8000	-6.7791
15.9769	-316.8000	-6.7804
16.0774	-316.8000	-6.7741
16.1781	-316.8000	-6.7693
16.2778	-316.8000	-6.7718
16.3784	-316.8000	-6.7711
16.4781	-316.8000	-6.7714
16.5776	-316.8000	-6.7678
16.6786	-316.8000	-6.7701
16.7790	-316.8000	-6.7716
16.8786	-316.8000	-6.7675
16.9791	-316.8000	-6.7655
17.0789	-316.8000	-6.7695
17.1792	-316.8000	-6.7652
17.2786	-316.8000	-6.7615
17.3792	-316.8000	-6.7625
17.4792	-316.8000	-6.7598
17.5790	-316.8000	-6.7611
17.6798	-316.8000	-6.7593
17.7798	-316.8000	-6.7592
17.8798	-316.8000	-6.7598
17.9797	-316.8000	-6.7575
18.0805	-316.8000	-6.7549
18.1811	-316.8000	-6.7591
18.2820	-316.8000	-6.7571
18.3826	-316.8000	-6.7544
18.4825	-316.8000	-6.7538
18.5833	-316.8000	-6.7542
18.6828	-316.8000	-6.7530
18.7825	-316.8000	-6.7478
18.8833	-316.8000	-6.7476
18.9826	-316.8000	-6.7473
19.0828	-316.8000	-6.7452
19.1827	-316.8000	-6.7439
19.2829	-316.8000	-6.7452
19.3833	-316.8000	-6.7488
19.4825	-316.8000	-6.7441
19.5827	-316.8000	-6.7459
19.6829	-316.8000	-6.7449
19.7842	-316.8000	-6.7458
19.8840	-316.8000	-6.7415
19.9851	-316.8000	-6.7412
20.0851	-316.8000	-6.7384
20.1863	-316.8000	-6.7375
20.2868	-316.8000	-6.7392
20.3873	-316.8000	-6.7376
20.4865	-316.8000	-6.7393
20.5867	-316.8000	-6.7361
20.6873	-316.8000	-6.7347
20.7871	-316.8000	-6.7314
20.8879	-316.8000	-6.7334
20.9891	-316.8000	-6.7321
21.0899	-316.8000	-6.7302
21.1897	-316.8000	-6.7296
21.2898	-316.8000	-6.7318
21.3909	-316.8000	-6.7287
21.4912	-316.8000	-6.7273
21.5905	-316.8000	-6.7288
21.6912	-316.8000	-6.7289
21.7923	-316.8000	-6.7283
21.8920	-316.8000	-6.7274
21.9932	-316.8000	-6.7258
22.0938	-316.8000	-6.7274
22.1949	-316.8000	-6.7246
22.2963	-316.8000	-6.7241
22.3960	-316.8000	-6.7252
22.4963	-316.8000	-6.7240
22.5955	-316.8000	-6.7228
22.6957	-316.8000	-6.7213
22.7967	-316.8000	-6.7196
22.8971	-316.8000	-6.7227
22.9969	-316.8000	-6.7220
23.0968	-316.8000	-6.7179
23.1974	-316.8000	-6.7166
23.2974	-316.8000	-6.7168
23.3971	-316.8000	-6.7185
23.4983	-316.8000	-6.7150
23.5975	-316.8000	-6.7168
23.6982	-316.8000	-6.7169
23.7978	-316.8000	-6.7130
23.8975	-316.8000	-6.7151
23.9975	-316.8000	-6.7117
24.0983	-316.8000	-6.7119
24.1980	-316.8000	-6.7117
24.2977	-316.8000	-6.7126
24.3986	-316.8000	-6.7136
24.4993	-316.8000	-6.7085
24.5990	-316.8000	-6.7110
24.6993	-316.8000	-6.7069
24.7987	-316.8000	-6.7101
24.8990	-316.8000	-6.7101
24.9988	-316.8000	-6.7092
25.0990	-316.8000	-6.7100
25.1989	-316.8000	-6.7086
25.2989	-316.8000	-6.7084
25.3990	-316.8000	-6.7063
25.4993	-316.8000	-6.7061
25.5985	-316.8000	-6.7067
25.6992	-316.8000	-6.7033
25.7987	-316.8000	-6.7035
25.8993	-316.8000	-6.7035
25.9995	-316.8000	-6.7012
26.0998	-316.8000	-6.7020
26.1998	-316.8000	-6.6992
26.2999	-316.8000	-6.7016
26.3996	-316.8000	-6.6996
26.4999	-316.8000	-6.6990
26.5998	-316.8000	-6.7019
26.6996	-316.8000	-6.7008
26.8005	-316.8000	-6.7000
26.8998	-316.8000	-6.6995
26.9999	-316.8000	-6.7001
27.1010	-316.8000	-6.6995
27.2013	-316.8000	-6.6983
27.3008	-316.8000	-6.6979
27.4009	-316.8000	-6.6964
27.5011	-316.8000	-6.6978
27.6007	-316.8000	-6.6948
27.7012	-316.8000	-6.6977
27.8018	-316.8000	-6.6944
27.9018	-316.8000	-6.6936
28.0019	-316.8000	-6.6923
28.1018	-316.8000	-6.6920
28.2018	-316.8000	-6.6920
28.3017	-316.8000	-6.6904
28.4022	-316.8000	-6.6880
28.5018	-316.8000	-6.6884
28.6019	-316.8000	-6.6881
28.7022	-316.8000	-6.6835
28.8015	-316.8000	-6.6909
28.9031	-316.8000	-6.6855
29.0042	-316.8000	-6.6878
29.1039	-316.8000	-6.6891
29.2043	-316.8000	-6.6889
29.3043	-316.8000	-6.6916
29.4040	-316.8000	-6.6872
29.5037	-316.8000	-6.6895
29.6042	-316.8000	-6.6853
29.7046	-316.8000	-6.6877
29.8063	-316.8000	-6.6868
29.9061	-316.8000	-6.6828
30.0064	-316.8000	-6.6836
30.1060	-316.8000	-6.6844
30.2061	-316.8000	-6.6858
30.3073	-316.8000	-6.6852
30.4075	-316.8000	-6.6857
30.5066	-316.8000	-6.6800
30.6066	-316.8000	-6.6829
30.7068	-316.8000	-6.6817
30.8079	-316.8000	-6.6803
30.9087	-316.8000	-6.6795
31.0095	-316.8000	-6.6789
31.1092	-316.8000	-6.6790
31.2093	-316.8000	-6.6753
31.3086	-316.8000	-6.6755
31.4090	-316.8000	-6.6773
31.5092	-316.8000	-6.6762
31.6094	-316.8000	-6.6740
31.7094	-316.8000	-6.6763
31.8093	-316.8000	-6.6783
31.9095	-316.8000	-6.6718
32.0113	-316.8000	-6.6744
32.1108	-316.8000	-6.6753
32.2123	-316.8000	-6.6738
32.3123	-316.8000	-6.6727
32.4120	-316.8000	-6.6727
32.5121	-316.8000	-6.6698
32.6121	-316.8000	-6.6711
32.7123	-316.8000	-6.6728
32.8118	-316.8000	-6.6713
32.9120	-316.8000	-6.6713
33.0122	-316.8000	-6.6699
33.1130	-316.8000	-6.6708
33.2140	-316.8000	-6.6719
33.3137	-316.8000	-6.6713
33.4147	-316.8000	-6.6715
33.5167	-316.8000	-6.6713
33.6183	-316.8000	-6.6684
33.7180	-316.8000	-6.6667
33.8189	-316.8000	-6.6711
33.9186	-316.8000	-6.6690
34.0199	-316.8000	-6.6675
34.1203	-316.8000	-6.6653
34.2207	-316.8000	-6.6667
34.3206	-316.8000	-6.6632
34.4215	-316.8000	-6.6627
34.5210	-316.8000	-6.6612
34.6207	-316.8000	-6.6674
34.7214	-316.8000	-6.6654
34.8211	-316.8000	-6.6644
34.9213	-316.8000	-6.6644
35.0210	-316.8000	-6.6631
35.1207	-316.8000	-6.6635
35.2214	-316.8000	-6.6625
35.3210	-316.8000	-6.6595
35.4208	-316.8000	-6.6613
35.5214	-316.8000	-6.6630
35.6212	-316.8000	-6.6610
35.7213	-316.8000	-6.6632
35.8211	-316.8000	-6.6625
35.9213	-316.8000	-6.6642
36.0211	-316.8000	-6.6589
36.1220	-316.8000	-6.6596
36.2224	-316.8000	-6.6584
36.3219	-316.8000	-6.6616
36.4216	-316.8000	-6.6602
36.5223	-316.8000	-6.6557
36.6222	-316.8000	-6.6594
36.7223	-316.8000	-6.6592
36.8220	-316.8000	-6.6566
36.9223	-316.8000	-6.6571
37.0223	-316.8000	-6.6540
37.1221	-316.8000	-6.6544
37.2223	-316.8000	-6.6516
37.3223	-316.8000	-6.6544
37.4224	-316.8000	-6.6552
37.5223	-316.8000	-6.6532
37.6221	-316.8000	-6.6521
37.7223	-316.8000	-6.6526
37.8220	-316.8000	-6.6537
37.9218	-316.8000	-6.6522
38.0218	-316.8000	-6.6540
38.1224	-316.8000	-6.6537
38.2223	-316.8000	-6.6520
38.3218	-316.8000	-6.6514
38.4221	-316.8000	-6.6498
38.5216	-316.8000	-6.6510
38.6223	-316.8000	-6.6486
38.7231	-316.8000	-6.6468
38.8228	-316.8000	-6.6487
38.9240	-316.8000	-6.6473
39.0246	-316.8000	-6.6484
39.1248	-316.8000	-6.6438
39.2248	-316.8000	-6.6471
39.3251	-316.8000	-6.6470
39.4250	-316.8000	-6.6449
39.5251	-316.8000	-6.6450
39.6250	-316.8000	-6.6436
39.7252	-316.8000	-6.6434
39.8250	-316.8000	-6.6447
39.9252	-316.8000	-6.6394
40.0250	-316.8000	-6.6434
40.1247	-316.8000	-6.6440
40.2251	-316.8000	-6.6423
40.3258	-316.8000	-6.6435
40.4260	-316.8000	-6.6447
40.5261	-316.8000	-6.6418
40.6262	-316.8000	-6.6435
40.7276	-316.8000	-6.6416
40.8271	-316.8000	-6.6437
40.9275	-316.8000	-6.6424
41.0272	-316.8000	-6.6400
41.1279	-316.8000	-6.6402
41.2278	-316.8000	-6.6413
41.3283	-316.8000	-6.6380
41.4278	-316.8000	-6.6401
41.5292	-316.8000	-6.6382
41.6289	-316.8000	-6.6412
41.7297	-316.8000	-6.6397
41.8297	-316.8000	-6.6388
41.9298	-316.8000	-6.6374
42.0299	-316.8000	-6.6363
42.1299	-316.8000	-6.6368
42.2297	-316.8000	-6.6348
42.3299	-316.8000	-6.6366
42.4300	-316.8000	-6.6396
42.5300	-316.8000	-6.6352
42.6297	-316.8000	-6.6368
42.7300	-316.8000	-6.6354
42.8297	-316.8000	-6.6376
42.9300	-316.8000	-6.6338
43.0306	-316.8000	-6.6376
43.1313	-316.8000	-6.6348
43.2307	-316.8000	-6.6350
43.3319	-316.8000	-6.6333
43.4320	-316.8000	-6.6345
43.5324	-316.8000	-6.6312
43.6332	-316.8000	-6.6339
43.7334	-316.8000	-6.6344
43.8335	-316.8000	-6.6316
43.9331	-316.8000	-6.6299
44.0332	-316.8000	-6.6314
44.1329	-316.8000	-6.6326
44.2334	-316.8000	-6.6327
44.3333	-316.8000	-6.6312
44.4341	-316.8000	-6.6314
44.5342	-316.8000	-6.6309
44.6354	-316.8000	-6.6310
44.7350	-316.8000	-6.6270
44.8352	-316.8000	-6.6296
44.9355	-316.8000	-6.6289
45.0357	-316.8000	-6.6300
45.1358	-316.8000	-6.6280
45.2374	-316.8000	-6.6294
45.3371	-316.8000	-6.6268
45.4368	-316.8000	-6.6267
45.5370	-316.8000	-6.6275
45.6373	-316.8000	-6.6284
45.7375	-316.8000	-6.6290
45.8381	-316.8000	-6.6287
45.9386	-316.8000	-6.6290
46.0386	-316.8000	-6.6311
46.1379	-316.8000	-6.6276
46.2381	-316.8000	-6.6280
46.3385	-316.8000	-6.6271
46.4380	-316.8000	-6.6242
46.5382	-316.8000	-6.6275
46.6387	-316.8000	-6.6270
46.7385	-316.8000	-6.6258
46.8381	-316.8000	-6.6253
46.9395	-316.8000	-6.6269
47.0389	-316.8000	-6.6241
47.1395	-316.8000	-6.6238
47.2400	-316.8000	-6.6209
47.3399	-316.8000	-6.6227
47.4404	-316.8000	-6.6212
47.5400	-316.8000	-6.6204
47.6401	-316.8000	-6.6202
47.7403	-316.8000	-6.6211
47.8401	-316.8000	-6.6206
47.9400	-316.8000	-6.6219
48.0412	-316.8000	-6.6227
48.1408	-316.8000	-6.6205
48.2414	-316.8000	-6.6204
48.3412	-316.8000	-6.6205
48.4410	-316.8000	-6.6215
48.5408	-316.8000	-6.6217
48.6408	-316.8000	-6.6185
48.7413	-316.8000	-6.6209
48.8422	-316.8000	-6.6194
48.9424	-316.8000	-6.6206
49.0424	-316.8000	-6.6182
49.1419	-316.8000	-6.6185
49.2431	-316.8000	-6.6194
49.3428	-316.8000	-6.6186
49.4428	-316.8000	-6.6169
49.5439	-316.8000	-6.6189
49.6446	-316.8000	-6.6164
49.7446	-316.8000	-6.6128
49.8438	-316.8000	-6.6146
49.9449	-316.8000	-6.6148
50.0449	-316.8000	-6.6159
50.1451	-316.8000	-6.6144
50.2453	-316.8000	-6.6141
50.3451	-316.8000	-6.6121
50.4457	-316.8000	-6.6134
50.5448	-316.8000	-6.6145
50.6448	-316.8000	-6.6130
50.7450	-316.8000	-6.6148
50.8453	-316.8000	-6.6109
50.9450	-316.8000	-6.6142
51.0454	-316.8000	-6.6126
51.1458	-316.8000	-6.6128
51.2460	-316.8000	-6.6142
51.3466	-316.8000	-6.6109
51.4458	-316.8000	-6.6125
51.5465	-316.8000	-6.6128
51.6459	-316.8000	-6.6116
51.7462	-316.8000	-6.6082
51.8461	-316.8000	-6.6094
51.9470	-316.8000	-6.6119
52.0480	-316.8000	-6.6091
52.1483	-316.8000	-6.6119
52.2482	-316.8000	-6.6074
52.3484	-316.8000	-6.6067
52.4478	-316.8000	-6.6063
52.5484	-316.8000	-6.6067
52.6483	-316.8000	-6.6087
52.7480	-316.8000	-6.6074
52.8485	-316.8000	-6.6038
52.9478	-316.8000	-6.6058
53.0481	-316.8000	-6.6065
53.1479	-316.8000	-6.6051
53.2487	-316.8000	-6.6062
53.3487	-316.8000	-6.6054
53.4491	-316.8000	-6.6021
53.5500	-316.8000	-6.6032
53.6514	-316.8000	-6.6033
53.7526	-316.8000	-6.6054
53.8522	-316.8000	-6.6041
53.9521	-316.8000	-6.6049
54.0523	-316.8000	-6.6039
54.1518	-316.8000	-6.6019
54.2521	-316.8000	-6.6025
54.3525	-316.8000	-6.6018
54.4523	-316.8000	-6.6040
54.5536	-316.8000	-6.6015
54.6538	-316.8000	-6.6023
54.7543	-316.8000	-6.6019
54.8540	-316.8000	-6.6048
54.9543	-316.8000	-6.6012
55.0543	-316.8000	-6.6049
55.1538	-316.8000	-6.6028
55.2541	-316.8000	-6.6059
55.3546	-316.8000	-6.6033
55.4546	-316.8000	-6.6051
55.5547	-316.8000	-6.6035
55.6540	-316.8000	-6.6002
55.7547	-316.8000	-6.6003
55.8544	-316.8000	-6.6016
55.9538	-316.8000	-6.5992
56.0540	-316.8000	-6.6002
56.1552	-316.8000	-6.6017
56.2560	-316.8000	-6.6008
56.3561	-316.8000	-6.5999
56.4562	-316.8000	-6.6039
56.5564	-316.8000	-6.6020
56.6567	-316.8000	-6.5979
56.7563	-316.8000	-6.5994
56.8565	-316.8000	-6.6016
56.9565	-316.8000	-6.6045
57.0565	-316.8000	-6.5996
57.1566	-316.8000	-6.5954
57.2566	-316.8000	-6.5970
57.3561	-316.8000	-6.5994
57.4561	-316.8000	-6.5956
57.5567	-316.8000	-6.5957
57.6568	-316.8000	-6.5964
57.7576	-316.8000	-6.5954
57.8578	-316.8000	-6.5952
57.9582	-316.8000	-6.5963
58.0587	-316.8000	-6.5948
58.1597	-316.8000	-6.5938
58.2608	-316.8000	-6.5895
58.3601	-316.8000	-6.5948
58.4600	-316.8000	-6.5924
58.5602	-316.8000	-6.5936
58.6605	-316.8000	-6.5945
58.7610	-316.8000	-6.5906
58.8609	-316.8000	-6.5906
58.9622	-316.8000	-6.5886
59.0635	-316.8000	-6.5881
59.1641	-316.8000	-6.5965
59.2642	-316.8000	-6.5977
59.3644	-316.8000	-6.5944
59.4651	-316.8000	-6.5937
59.5653	-316.8000	-6.5924
59.6651	-316.8000	-6.5919
59.7654	-316.8000	-6.5913
59.8652	-316.8000	-6.5902
59.9651	-316.8000	-6.5919
60.0655	-316.8000	-6.5920
60.1654	-316.8000	-6.5895
60.2652	-316.8000	-6.5955
60.3657	-316.8000	-6.5925
60.4662	-316.8000	-6.5899
60.5677	-316.8000	-6.5929
60.6686	-316.8000	-6.5896
60.7683	-316.8000	-6.5905
60.8682	-316.8000	-6.5887
60.9692	-316.8000	-6.5867
61.0690	-316.8000	-6.5888
61.1690	-316.8000	-6.5877
61.2694	-316.8000	-6.5865
61.3694	-316.8000	-6.5904
61.4692	-316.8000	-6.5856
61.5690	-316.8000	-6.5812
61.6694	-316.8000	-6.5869
61.7697	-316.8000	-6.5876
61.8699	-316.8000	-6.5874
61.9702	-316.8000	-6.5867
62.0699	-316.8000	-6.5821
62.1713	-316.8000	-6.5802
62.2718	-316.8000	-6.5802
62.3723	-316.8000	-6.5816
62.4719	-316.8000	-6.5833
62.5722	-316.8000	-6.5853
62.6726	-316.8000	-6.5844
62.7726	-316.8000	-6.5815
62.8721	-316.8000	-6.5861
62.9735	-316.8000	-6.5851
63.0736	-316.8000	-6.5851
63.1734	-316.8000	-6.5801
63.2734	-316.8000	-6.5845
63.3738	-316.8000	-6.5824
63.4736	-316.8000	-6.5836
63.5731	-316.8000	-6.5841
63.6739	-316.8000	-6.5867
63.7743	-316.8000	-6.5838
63.8740	-316.8000	-6.5829
63.9740	-316.8000	-6.5822
64.0748	-316.8000	-6.5854
64.1746	-316.8000	-6.5831
64.2750	-316.8000	-6.5849
64.3756	-316.8000	-6.5864
64.4756	-316.8000	-6.5871
64.5754	-316.8000	-6.5832
64.6753	-316.8000	-6.5793
64.7749	-316.8000	-6.5800
64.8754	-316.8000	-6.5781
64.9762	-316.8000	-6.5817
65.0766	-316.8000	-6.5800
65.1767	-316.8000	-6.5791
65.2759	-316.8000	-6.5769
65.3763	-316.8000	-6.5773
65.4774	-316.8000	-6.5795
65.5777	-316.8000	-6.5744
65.6771	-316.8000	-6.5828
65.7779	-316.8000	-6.5787
65.8780	-316.8000	-6.5730
65.9781	-316.8000	-6.5786
66.0779	-316.8000	-6.5783
66.1797	-316.8000	-6.5776
66.2791	-316.8000	-6.5770
66.3792	-316.8000	-6.5774
66.4792	-316.8000	-6.5739
66.5789	-316.8000	-6.5773
66.6789	-316.8000	-6.5751
66.7791	-316.8000	-6.5772
66.8789	-316.8000	-6.5754
66.9796	-316.8000	-6.5748
67.0802	-316.8000	-6.5757
67.1804	-316.8000	-6.5777
67.2802	-316.8000	-6.5744
67.3802	-316.8000	-6.5780
67.4804	-316.8000	-6.5752
67.5802	-316.8000	-6.5720
67.6809	-316.8000	-6.5725
67.7810	-316.8000	-6.5754
67.8812	-316.8000	-6.5781
67.9811	-316.8000	-6.5745
68.0823	-316.8000	-6.5721
68.1822	-316.8000	-6.5722
68.2820	-316.8000	-6.5713
68.3824	-316.8000	-6.5746
68.4826	-316.8000	-6.5704
68.5822	-316.8000	-6.5725
68.6825	-316.8000	-6.5697
68.7822	-316.8000	-6.5746
68.8825	-316.8000	-6.5697
68.9822	-316.8000	-6.5772
69.0824	-316.8000	-6.5727
69.1827	-316.8000	-6.5725
69.2826	-316.8000	-6.5716
69.3824	-316.8000	-6.5670
69.4827	-316.8000	-6.5683
69.5826	-316.8000	-6.5714
69.6825	-316.8000	-6.5645
69.7830	-316.8000	-6.5716
69.8838	-316.8000	-6.5732
69.9844	-316.8000	-6.5713
70.0842	-316.8000	-6.5710
70.1840	-316.8000	-6.5692
70.2841	-316.8000	-6.5672
70.3850	-316.8000	-6.5700
70.4850	-316.8000	-6.5700
70.5850	-316.8000	-6.5678
70.6853	-316.8000	-6.5711
70.7850	-316.8000	-6.5683
70.8859	-316.8000	-6.5666
70.9858	-316.8000	-6.5707
71.0859	-316.8000	-6.5674
71.1866	-316.8000	-6.5665
71.2863	-316.8000	-6.5679
71.3871	-316.8000	-6.5699
71.4878	-316.8000	-6.5688
71.5876	-316.8000	-6.5694
71.6870	-316.8000	-6.5689
71.7870	-316.8000	-6.5671
71.8870	-316.8000	-6.5681
71.9878	-316.8000	-6.5651
72.0877	-316.8000	-6.5637
72.1891	-316.8000	-6.5655
72.2897	-316.8000	-6.5661
72.3894	-316.8000	-6.5667
72.4903	-316.8000	-6.5675
72.5903	-316.8000	-6.5664
72.6903	-316.8000	-6.5672
72.7901	-316.8000	-6.5636
72.8913	-316.8000	-6.5647
72.9912	-316.8000	-6.5665
73.0922	-316.8000	-6.5620
73.1919	-316.8000	-6.5607
73.2923	-316.8000	-6.5712
73.3933	-316.8000	-6.5690
73.4938	-316.8000	-6.5661
73.5936	-316.8000	-6.5671
73.6942	-316.8000	-6.5678
73.7943	-316.8000	-6.5636
73.8940	-316.8000	-6.5651
73.9940	-316.8000	-6.5634
74.0955	-316.8000	-6.5643
74.1957	-316.8000	-6.5633
74.2952	-316.8000	-6.5635
74.3950	-316.8000	-6.5637
74.4958	-316.8000	-6.5598
