27/11/2023 10:23:50 am
Time(s)	Displacement(mm) Force(N)
0.0000	50.0000	-0.3448
0.1460	50.0000	-0.3457
0.2471	50.0000	-0.3442
0.3479	50.0000	-0.3433
0.4480	50.0000	-0.3431
0.5482	50.0000	-0.3422
0.6490	50.0000	-0.3438
0.7490	50.0000	-0.3455
0.8490	50.0000	-0.3439
0.9491	50.0000	-0.3451
1.0496	50.0000	-0.3446
1.1495	50.0000	-0.3455
1.2491	50.0000	-0.3436
1.3497	50.0000	-0.3432
1.4499	50.0000	-0.3434
1.5501	50.0000	-0.3441
1.6509	50.0000	-0.3445
1.7511	50.0000	-0.3437
1.8516	50.0000	-0.3463
1.9511	50.0000	-0.3437
2.0516	50.0000	-0.3452
2.1512	50.0000	-0.3432
2.2530	50.0000	-0.3429
2.3527	50.0000	-0.3460
2.4528	50.0000	-0.3460
2.5541	50.0000	-0.3447
2.6544	50.0000	-0.3451
2.7545	50.0000	-0.3434
2.8541	50.0000	-0.3452
2.9544	50.0000	-0.3462
3.0543	50.0000	-0.3454
3.1553	50.0000	-0.3441
3.2569	50.0000	-0.3450
3.3567	50.0000	-0.3428
3.4567	50.0000	-0.3445
3.5566	50.0000	-0.3451
3.6564	50.0000	-0.3443
3.7561	50.0000	-0.3452
3.8561	50.0000	-0.3442
3.9562	50.0000	-0.3450
4.0580	50.0000	-0.3448
4.1573	50.0000	-0.3426
4.2572	50.0000	-0.3442
4.3571	50.0000	-0.3446
4.4590	50.0000	-0.3429
4.5586	50.0000	-0.3462
4.6593	50.0000	-0.3424
4.7606	50.0000	-0.3462
4.8607	50.0000	-0.3455
4.9616	50.0000	-0.3441
5.0620	50.0000	-0.3456
5.1623	50.0000	-0.3445
5.2627	50.0000	-0.3442
5.3626	50.0000	-0.3445
5.4624	50.0000	-0.3469
5.5639	50.0000	-0.3448
5.6639	50.0000	-0.3447
5.7641	50.0000	-0.3446
5.8645	50.0000	-0.3461
5.9642	50.0000	-0.3443
6.0644	50.0000	-0.3437
6.1643	50.0000	-0.3465
6.2645	50.0000	-0.3426
6.3645	50.0000	-0.3452
6.4643	50.0000	-0.3454
6.5643	50.0000	-0.3444
6.6652	50.0000	-0.3456
6.7664	50.0000	-0.3452
6.8669	50.0000	-0.3451
6.9666	50.0000	-0.3432
7.0671	50.0000	-0.3450
7.1676	50.0000	-0.3439
7.2676	50.0000	-0.3447
7.3689	50.0000	-0.3446
7.4684	50.0000	-0.3461
7.5690	50.0000	-0.3460
7.6686	50.0000	-0.3453
7.7689	50.0000	-0.3466
7.8685	50.0000	-0.3457
7.9692	50.0000	-0.3441
8.0698	50.0000	-0.3461
8.1695	50.0000	-0.3460
8.2702	50.0000	-0.3448
8.3712	50.0000	-0.3470
8.4715	50.0000	-0.3435
8.5713	50.0000	-0.3459
8.6720	50.0000	-0.3447
8.7730	50.0000	-0.3423
8.8740	50.0000	-0.3468
8.9747	50.0000	-0.3446
9.0751	50.0000	-0.3460
9.1743	50.0000	-0.3463
9.2744	50.0000	-0.3441
9.3745	50.0000	-0.3434
9.4745	50.0000	-0.3452
9.5745	50.0000	-0.3447
9.6745	50.0000	-0.3423
9.7744	50.0000	-0.3451
9.8745	50.0000	-0.3451
9.9754	50.0000	-0.3442
10.0760	50.0000	-0.3442
10.1767	50.0000	-0.3469
10.2768	50.0000	-0.3443
10.3768	50.0000	-0.3444
10.4761	50.0000	-0.3454
10.5771	50.0000	-0.3451
10.6775	50.0000	-0.3464
10.7771	50.0000	-0.3453
10.8777	50.0000	-0.3451
10.9777	50.0000	-0.3449
11.0777	50.0000	-0.3427
11.1779	50.0000	-0.3463
11.2772	50.0000	-0.3434
11.3778	50.0000	-0.3447
11.4772	50.0000	-0.3441
11.5778	50.0000	-0.3433
11.6783	50.0000	-0.3430
11.7787	50.0000	-0.3454
11.8781	50.0000	-0.3443
11.9788	50.0000	-0.3442
12.0784	50.0000	-0.3465
12.1789	50.0000	-0.3440
12.2792	50.0000	-0.3442
12.3811	50.0000	-0.3444
12.4813	50.0000	-0.3449
12.5821	50.0000	-0.3433
12.6821	50.0000	-0.3463
12.7815	50.0000	-0.3432
12.8821	50.0000	-0.3451
12.9827	50.0000	-0.3448
13.0822	50.0000	-0.3431
13.1832	50.0000	-0.3445
13.2843	50.0000	-0.3437
13.3845	50.0000	-0.3452
13.4845	50.0000	-0.3432
13.5847	50.0000	-0.3431
13.6845	50.0000	-0.3446
13.7860	50.0000	-0.3449
13.8858	50.0000	-0.3452
13.9855	50.0000	-0.3435
14.0861	50.0000	-0.3434
14.1862	50.0000	-0.3436
14.2868	50.0000	-0.3476
14.3863	50.0000	-0.3461
14.4862	50.0000	-0.3429
14.5868	50.0000	-0.3452
14.6869	50.0000	-0.3454
14.7864	50.0000	-0.3455
14.8868	50.0000	-0.3440
14.9872	50.0000	-0.3437
15.0878	50.0000	-0.3434
15.1878	50.0000	-0.3444
15.2880	50.0000	-0.3451
15.3881	50.0000	-0.3425
15.4890	50.0000	-0.3442
15.5887	50.0000	-0.3438
15.6887	50.0000	-0.3443
15.7890	50.0000	-0.3434
15.8893	50.0000	-0.3436
15.9897	50.0000	-0.3445
16.0901	50.0000	-0.3442
16.1902	50.0000	-0.3429
16.2911	50.0000	-0.3435
16.3912	50.0000	-0.3442
16.4912	50.0000	-0.3448
16.5917	50.0000	-0.3429
16.6922	50.0000	-0.3443
16.7918	50.0000	-0.3443
16.8918	50.0000	-0.3449
16.9922	50.0000	-0.3442
17.0940	50.0000	-0.3451
17.1940	50.0000	-0.3417
17.2941	50.0000	-0.3445
17.3934	50.0000	-0.3434
17.4934	50.0000	-0.3438
17.5951	50.0000	-0.3433
17.6943	50.0000	-0.3450
17.7946	50.0000	-0.3430
17.8953	50.0000	-0.3455
17.9952	50.0000	-0.3454
18.0960	50.0000	-0.3429
18.1957	50.0000	-0.3439
18.2957	50.0000	-0.3461
18.3967	50.0000	-0.3437
18.4965	50.0000	-0.3445
18.5964	50.0000	-0.3451
18.6971	50.0000	-0.3452
18.7969	50.0000	-0.3467
18.8963	50.0000	-0.3439
18.9970	50.0000	-0.3435
19.0968	50.0000	-0.3442
19.1965	50.0000	-0.3440
19.2962	50.0000	-0.3443
19.3970	50.0000	-0.3440
19.4967	50.0000	-0.3441
19.5971	50.0000	-0.3433
19.6965	50.0000	-0.3433
19.7963	50.0000	-0.3434
19.8967	50.0000	-0.3448
19.9968	50.0000	-0.3453
20.0962	50.0000	-0.3449
20.1968	50.0000	-0.3452
20.2965	50.0000	-0.3437
20.3967	50.0000	-0.3439
20.4983	50.0000	-0.3418
20.5992	50.0000	-0.3433
20.7002	50.0000	-0.3436
20.8007	50.0000	-0.3430
20.9006	50.0000	-0.3440
21.0007	50.0000	-0.3428
21.1011	50.0000	-0.3441
21.2015	50.0000	-0.3442
21.3021	50.0000	-0.3433
21.4022	50.0000	-0.3452
21.5027	50.0000	-0.3455
21.6041	50.0000	-0.3435
21.7036	50.0000	-0.3441
21.8032	50.0000	-0.3450
21.9033	50.0000	-0.3448
22.0033	50.0000	-0.3443
22.1038	50.0000	-0.3441
22.2047	50.0000	-0.3461
22.3046	50.0000	-0.3445
22.4045	50.0000	-0.3448
22.5046	50.0000	-0.3462
22.6063	50.0000	-0.3449
22.7072	50.0000	-0.3441
22.8063	50.0000	-0.3434
22.9064	50.0000	-0.3438
23.0068	50.0000	-0.3443
23.1065	50.0000	-0.3440
23.2082	50.0000	-0.3455
23.3080	50.0000	-0.3440
23.4077	50.0000	-0.3443
23.5074	50.0000	-0.3441
23.6092	50.0000	-0.3440
23.7089	50.0000	-0.3439
23.8087	50.0000	-0.3437
23.9088	50.0000	-0.3437
24.0088	50.0000	-0.3448
24.1096	50.0000	-0.3450
24.2095	50.0000	-0.3443
24.3098	50.0000	-0.3450
24.4099	50.0000	-0.3456
24.5095	50.0000	-0.3445
24.6111	50.0000	-0.3447
24.7103	50.0000	-0.3452
24.8104	50.0000	-0.3448
24.9106	50.0000	-0.3437
25.0108	50.0000	-0.3450
25.1107	50.0000	-0.3447
25.2109	50.0000	-0.3436
25.3110	50.0000	-0.3436
25.4104	50.0000	-0.3462
25.5110	50.0000	-0.3435
25.6105	50.0000	-0.3445
25.7115	50.0000	-0.3427
25.8120	50.0000	-0.3436
25.9123	50.0000	-0.3438
26.0123	50.0000	-0.3436
26.1142	50.0000	-0.3432
26.2140	50.0000	-0.3448
26.3139	50.0000	-0.3442
26.4139	50.0000	-0.3417
26.5153	50.0000	-0.3448
26.6158	50.0000	-0.3442
26.7155	50.0000	-0.3446
26.8165	50.0000	-0.3443
26.9174	50.0000	-0.3447
27.0184	50.0000	-0.3435
27.1190	50.0000	-0.3424
27.2193	50.0000	-0.3441
27.3199	50.0000	-0.3442
27.4202	50.0000	-0.3416
27.5202	50.0000	-0.3429
27.6198	50.0000	-0.3441
27.7202	50.0000	-0.3442
27.8197	50.0000	-0.3449
27.9201	50.0000	-0.3443
28.0197	50.0000	-0.3445
28.1204	50.0000	-0.3444
28.2208	50.0000	-0.3429
28.3207	50.0000	-0.3434
28.4203	50.0000	-0.3438
28.5213	50.0000	-0.3435
28.6218	50.0000	-0.3410
28.7219	50.0000	-0.3448
28.8222	50.0000	-0.3441
28.9219	50.0000	-0.3448
29.0219	50.0000	-0.3448
29.1222	50.0000	-0.3436
29.2217	50.0000	-0.3455
29.3222	50.0000	-0.3439
29.4217	50.0000	-0.3458
29.5227	50.0000	-0.3441
29.6244	50.0000	-0.3454
29.7243	50.0000	-0.3457
29.8244	50.0000	-0.3443
29.9251	50.0000	-0.3458
30.0245	50.0000	-0.3441
30.1246	50.0000	-0.3446
30.2247	50.0000	-0.3469
30.3245	50.0000	-0.3425
30.4247	50.0000	-0.3462
30.5246	50.0000	-0.3454
30.6245	50.0000	-0.3456
30.7245	50.0000	-0.3450
30.8244	50.0000	-0.3429
30.9245	50.0000	-0.3446
31.0244	50.0000	-0.5060
31.1245	50.0000	-0.5340
31.2245	50.0000	-0.5145
31.3245	50.0000	-0.4350
31.4245	50.0000	-0.7337
31.5246	50.0000	-0.7417
31.6247	50.0000	-0.6880
31.7246	50.0000	-0.9041
31.8250	50.0000	-1.1454
31.9252	50.0000	-1.3825
32.0263	50.0000	-1.1176
32.1260	50.0000	-0.8424
32.2254	50.0000	-1.1964
32.3260	50.0000	-1.2816
32.4257	50.0000	-1.3552
32.5257	50.0000	-1.7880
32.6254	50.0000	-1.7071
32.7259	50.0000	-1.5794
32.8255	50.0000	-1.5602
32.9264	50.0000	-1.3641
33.0264	50.0000	-1.1965
33.1273	50.0000	-0.8683
33.2272	50.0000	-0.6568
33.3276	50.0000	-0.6926
33.4278	50.0000	-0.7030
33.5278	50.0000	-0.9217
33.6276	50.0000	-0.6059
33.7274	50.0000	-0.8230
33.8281	50.0000	-1.3823
33.9279	50.0000	-1.4912
34.0284	50.0000	-1.5891
34.1285	50.0000	-1.3672
34.2290	50.0000	-1.5529
34.3294	50.0000	-1.5410
34.4304	50.0000	-1.3481
34.5314	50.0000	-1.5021
34.6321	50.0000	-1.4881
34.7323	50.0000	-1.6142
34.8323	50.0000	-1.7040
34.9322	50.0000	-1.6458
35.0331	50.0000	-1.6845
35.1325	50.0000	-1.8133
35.2327	50.0000	-1.8067
35.3333	50.0000	-1.8695
35.4347	50.0000	-1.6957
35.5348	50.0000	-1.3870
35.6347	50.0000	-1.2508
35.7347	50.0000	-1.3703
35.8347	50.0000	-1.2151
35.9347	50.0000	-0.7351
36.0358	50.0000	-0.5793
36.1354	50.0000	-0.4633
36.2366	50.0000	-0.5128
36.3373	50.0000	-1.1667
36.4371	50.0000	-1.7136
36.5371	50.0000	-1.8973
36.6372	50.0000	-2.1864
36.7369	50.0000	-2.1355
36.8376	50.0000	-1.8659
36.9373	50.0000	-1.6296
37.0375	50.0000	-1.6941
37.1376	50.0000	-1.9608
37.2383	50.0000	-1.9082
37.3384	50.0000	-1.9522
37.4392	50.0000	-1.7165
37.5392	50.0000	-1.6638
37.6394	50.0000	-1.6516
37.7405	50.0000	-0.9919
37.8404	50.0000	-0.6136
37.9423	50.0000	-0.1076
38.0423	50.0000	-0.3875
38.1423	50.0000	-0.4270
38.2423	50.0000	-0.5331
38.3424	50.0000	-0.8860
38.4444	50.0000	-0.9739
38.5447	50.0000	-1.1002
38.6447	50.0000	-0.9451
38.7446	50.0000	-0.9396
38.8451	50.0000	-1.0183
38.9447	50.0000	-0.8392
39.0448	50.0000	-0.8495
39.1455	50.0000	-0.8978
39.2456	50.0000	-0.7174
39.3457	50.0000	-0.5471
39.4456	50.0000	-0.4305
39.5455	50.0000	-0.1866
39.6463	50.0000	0.2116
39.7455	50.0000	0.0328
39.8465	50.0000	-0.3530
39.9469	50.0000	-0.2903
40.0473	50.0000	-0.5361
40.1466	50.0000	-0.1720
40.2471	50.0000	-0.3316
40.3466	50.0000	-0.2351
40.4467	50.0000	-0.0462
40.5464	50.0000	-0.0006
40.6468	50.0000	-0.1065
40.7476	50.0000	0.0459
40.8479	50.0000	0.3656
40.9482	50.0000	0.7424
41.0474	50.0000	0.7518
41.1476	50.0000	0.8358
41.2479	50.0000	0.9558
41.3484	50.0000	0.7637
41.4495	50.0000	0.7376
41.5495	50.0000	0.5935
41.6500	50.0000	0.4925
41.7500	50.0000	0.6495
41.8500	50.0000	0.7561
41.9499	50.0000	0.7502
42.0507	50.0000	0.7745
42.1509	50.0000	0.7525
42.2522	50.0000	0.7375
42.3523	50.0000	0.7467
42.4523	50.0000	0.7389
42.5523	50.0000	0.7797
42.6523	50.0000	0.8933
42.7524	50.0000	0.8961
42.8544	50.0000	0.8523
42.9541	50.0000	0.6171
43.0540	50.0000	0.6734
43.1540	50.0000	0.7485
43.2538	50.0000	0.7388
43.3537	50.0000	0.7413
43.4543	50.0000	0.7576
43.5542	50.0000	0.7297
43.6534	50.0000	0.7676
43.7535	50.0000	0.6287
43.8537	50.0000	0.7536
43.9544	50.0000	0.7685
44.0545	50.0000	0.7699
44.1547	50.0000	0.7527
44.2545	50.0000	0.7985
44.3546	50.0000	0.9445
44.4564	50.0000	1.0253
44.5574	50.0000	0.9754
44.6568	50.0000	0.9497
44.7569	50.0000	0.7179
44.8571	50.0000	0.7430
44.9575	50.0000	0.7220
45.0583	50.0000	0.7351
45.1584	50.0000	0.7666
45.2585	50.0000	0.8003
45.3597	50.0000	0.7538
45.4595	50.0000	0.8258
45.5595	50.0000	0.7455
45.6613	50.0000	0.7524
45.7604	50.0000	0.7529
45.8610	50.0000	0.7074
45.9615	50.0000	0.4848
46.0624	50.0000	0.8392
46.1615	50.0000	0.7060
46.2619	50.0000	0.4553
46.3624	50.0000	0.4648
46.4628	50.0000	0.4962
46.5645	50.0000	0.5554
46.6648	50.0000	0.7085
46.7648	50.0000	0.7048
46.8646	50.0000	0.6379
46.9647	50.0000	0.7001
47.0648	50.0000	0.8865
47.1648	50.0000	0.4368
47.2648	50.0000	0.8099
47.3646	50.0000	0.5655
47.4661	50.0000	0.6353
47.5657	50.0000	0.7172
47.6658	50.0000	0.7321
47.7659	50.0000	0.5492
47.8665	50.0000	0.9812
47.9664	50.0000	1.4788
48.0685	50.0000	1.5735
48.1692	50.0000	1.7246
48.2690	50.0000	1.6762
48.3693	50.0000	1.2640
48.4694	50.0000	0.8575
48.5690	50.0000	0.7113
48.6694	50.0000	0.6008
48.7689	50.0000	1.3408
48.8690	50.0000	1.3948
48.9689	50.0000	1.2922
49.0696	50.0000	1.6593
49.1700	50.0000	0.8640
49.2700	50.0000	0.6880
49.3700	50.0000	0.7570
49.4704	50.0000	0.7323
49.5702	50.0000	0.6959
49.6700	50.0000	0.7115
49.7703	50.0000	0.7681
49.8704	50.0000	0.7682
49.9703	50.0000	0.6464
50.0703	50.0000	0.4011
50.1702	50.0000	0.5999
50.2694	50.0000	0.7800
50.3704	50.0000	0.7469
50.4696	50.0000	0.6874
50.5700	50.0000	0.6685
50.6701	50.0000	0.7615
50.7702	50.0000	0.7451
50.8702	50.0000	0.9159
50.9714	50.0000	0.6776
51.0724	50.0000	0.4767
51.1722	50.0000	0.7939
51.2718	50.0000	0.9042
51.3718	50.0000	0.6089
51.4724	50.0000	0.7044
51.5719	50.0000	0.7625
51.6720	50.0000	0.8217
51.7723	50.0000	0.7772
51.8724	50.0000	1.0416
51.9723	50.0000	0.9207
52.0724	50.0000	1.0467
52.1724	50.0000	0.8410
52.2724	50.0000	0.9427
52.3718	50.0000	1.0104
52.4724	50.0000	0.9391
52.5724	50.0000	0.7603
52.6724	50.0000	0.8783
52.7724	50.0000	0.8617
52.8725	50.0000	0.8282
52.9744	50.0000	0.8038
53.0753	50.0000	0.7317
53.1748	50.0000	0.7251
53.2749	50.0000	0.7230
53.3750	50.0000	0.7249
53.4758	50.0000	0.7241
53.5765	50.0000	0.7239
53.6778	50.0000	0.7243
53.7779	50.0000	0.7241
53.8783	50.0000	0.7228
53.9777	50.0000	0.7242
54.0783	50.0000	0.7232
54.1780	50.0000	0.7248
54.2782	50.0000	0.7220
54.3785	50.0000	0.7239
54.4790	50.0000	0.7242
54.5793	50.0000	0.7238
54.6793	50.0000	0.7233
54.7794	50.0000	0.7241
54.8791	50.0000	0.7229
54.9796	50.0000	0.7242
55.0796	50.0000	0.7247
55.1798	50.0000	0.7235
55.2800	50.0000	0.7209
55.3801	50.0000	0.7221
55.4797	50.0000	0.7247
55.5798	50.0000	0.7235
55.6796	50.0000	0.7248
55.7797	50.0000	0.7234
55.8806	50.0000	0.7234
55.9815	50.0000	0.7231
56.0813	50.0000	0.7215
56.1814	50.0000	0.7213
56.2824	50.0000	0.7248
56.3822	50.0000	0.7231
56.4824	50.0000	0.7217
56.5821	50.0000	0.7236
56.6825	50.0000	0.7236
56.7826	50.0000	0.7221
56.8836	50.0000	0.7247
56.9846	50.0000	0.7205
57.0849	50.0000	0.7242
57.1849	50.0000	0.7228
57.2848	50.0000	0.7231
57.3849	50.0000	0.7232
57.4847	50.0000	0.7225
57.5848	50.0000	0.7212
57.6846	50.0000	0.7215
57.7846	50.0000	0.7238
57.8847	50.0000	0.7236
57.9847	50.0000	0.7239
58.0856	50.0000	0.7235
58.1857	50.0000	0.7243
58.2863	50.0000	0.7237
58.3862	50.0000	0.7224
58.4866	50.0000	0.7227
58.5872	50.0000	0.7225
58.6876	50.0000	0.7227
58.7885	50.0000	0.7234
58.8888	50.0000	0.7234
58.9897	50.0000	0.7223
59.0909	50.0000	0.7239
59.1916	50.0000	0.7229
59.2922	50.0000	0.7231
59.3924	50.0000	0.7250
59.4921	50.0000	0.7246
59.5917	50.0000	0.7253
59.6923	50.0000	0.7228
59.7925	50.0000	0.7220
59.8925	50.0000	0.7223
59.9925	50.0000	0.7239
60.0926	50.0000	0.7218
60.1946	50.0000	0.7234
60.2949	50.0000	0.7241
60.3948	50.0000	0.7218
60.4949	50.0000	0.7228
60.5947	50.0000	0.7239
60.6949	50.0000	0.7239
60.7965	50.0000	0.7219
60.8958	50.0000	0.7231
60.9966	50.0000	0.7239
61.0972	50.0000	0.7220
61.1976	50.0000	0.7239
61.2978	50.0000	0.7239
61.3977	50.0000	0.7234
61.4985	50.0000	0.7226
61.5993	50.0000	0.7249
61.6991	50.0000	0.7222
61.7987	50.0000	0.7223
61.8990	50.0000	0.7222
61.9996	50.0000	0.7225
62.1002	50.0000	0.7223
62.2002	50.0000	0.7227
62.3004	50.0000	0.7227
62.4005	50.0000	0.7212
62.5001	50.0000	0.7219
62.6005	50.0000	0.7224
62.7003	50.0000	0.7217
62.8006	50.0000	0.7233
62.9014	50.0000	0.7229
63.0013	50.0000	0.7240
63.1012	50.0000	0.7221
63.2015	50.0000	0.7218
63.3015	50.0000	0.7223
63.4010	50.0000	0.7205
63.5013	50.0000	0.7225
63.6008	50.0000	0.7239
63.7008	50.0000	0.7218
63.8007	50.0000	0.7245
63.9006	50.0000	0.7226
64.0016	50.0000	0.7235
64.1023	50.0000	0.7209
64.2020	50.0000	0.7245
64.3025	50.0000	0.7247
64.4025	50.0000	0.7213
64.5025	50.0000	0.7224
64.6026	50.0000	0.7229
64.7025	50.0000	0.7228
64.8022	50.0000	0.7224
64.9025	50.0000	0.7231
65.0026	50.0000	0.7236
65.1025	50.0000	0.7225
65.2025	50.0000	0.7224
65.3022	50.0000	0.7220
65.4025	50.0000	0.7216
65.5025	50.0000	0.7237
65.6025	50.0000	0.7215
65.7024	50.0000	0.7221
65.8026	50.0000	0.7204
65.9046	50.0000	0.7209
66.0044	50.0000	0.7227
66.1041	50.0000	0.7214
66.2037	50.0000	0.7210
66.3051	50.0000	0.7228
66.4047	50.0000	0.7206
66.5050	50.0000	0.7228
66.6048	50.0000	0.7232
66.7048	50.0000	0.7206
66.8063	50.0000	0.7225
66.9069	50.0000	0.7235
67.0074	50.0000	0.7213
67.1070	50.0000	0.7234
67.2072	50.0000	0.7214
67.3070	50.0000	0.7222
67.4072	50.0000	0.7230
67.5070	50.0000	0.7212
67.6069	50.0000	0.7231
67.7074	50.0000	0.7228
67.8071	50.0000	0.7227
67.9078	50.0000	0.7212
68.0078	50.0000	0.7220
68.1091	50.0000	0.7221
68.2093	50.0000	0.7213
68.3095	50.0000	0.7228
68.4098	50.0000	0.7226
68.5101	50.0000	0.7214
68.6107	50.0000	0.7195
68.7114	50.0000	0.7216
68.8107	50.0000	0.7221
68.9110	50.0000	0.7228
69.0111	50.0000	0.7223
69.1109	50.0000	0.7222
69.2111	50.0000	0.7226
69.3115	50.0000	0.7225
69.4116	50.0000	0.7222
69.5110	50.0000	0.7208
69.6109	50.0000	0.7222
69.7113	50.0000	0.7201
69.8107	50.0000	0.7204
69.9111	50.0000	0.7220
70.0118	50.0000	0.7206
70.1126	50.0000	0.7231
70.2126	50.0000	0.7205
70.3126	50.0000	0.7203
70.4125	50.0000	0.7218
70.5126	50.0000	0.7206
70.6145	50.0000	0.7226
70.7143	50.0000	0.7205
70.8140	50.0000	0.7217
70.9154	50.0000	0.7229
71.0147	50.0000	0.7221
71.1147	50.0000	0.7223
71.2148	50.0000	0.7220
71.3158	50.0000	0.7234
71.4160	50.0000	0.7231
71.5163	50.0000	0.7225
71.6173	50.0000	0.7232
71.7176	50.0000	0.7203
71.8172	50.0000	0.7215
71.9172	50.0000	0.7226
72.0176	50.0000	0.7215
72.1179	50.0000	0.7208
72.2184	50.0000	0.7219
72.3193	50.0000	0.7219
72.4194	50.0000	0.7232
72.5194	50.0000	0.7223
72.6192	50.0000	0.7225
72.7193	50.0000	0.7238
72.8196	50.0000	0.7223
72.9198	50.0000	0.7223
73.0204	50.0000	0.7211
73.1206	50.0000	0.7203
73.2206	50.0000	0.7208
73.3205	50.0000	0.7199
73.4204	50.0000	0.7220
73.5205	50.0000	0.7242
73.6205	50.0000	0.7234
73.7205	50.0000	0.7215
73.8202	50.0000	0.7226
73.9204	50.0000	0.7205
74.0215	50.0000	0.7218
74.1216	50.0000	0.7204
74.2215	50.0000	0.7208
74.3215	50.0000	0.7216
74.4211	50.0000	0.7219
74.5219	50.0000	0.7218
74.6221	50.0000	0.7210
74.7222	50.0000	0.7206
74.8223	50.0000	0.7211
74.9220	50.0000	0.7222
75.0226	50.0000	0.7202
75.1222	50.0000	0.7229
75.2226	50.0000	0.7198
75.3219	50.0000	0.7202
75.4220	50.0000	0.7227
75.5231	50.0000	0.7201
75.6247	50.0000	0.7234
75.7247	50.0000	0.7227
75.8250	50.0000	0.7221
75.9250	50.0000	0.7202
76.0249	50.0000	0.7226
76.1259	50.0000	0.7216
76.2276	50.0000	0.7207
76.3269	50.0000	0.7227
76.4269	50.0000	0.7209
76.5273	50.0000	0.7219
76.6271	50.0000	0.7218
76.7267	50.0000	0.7224
76.8268	50.0000	0.7205
76.9276	50.0000	0.7233
77.0278	50.0000	0.7204
77.1287	50.0000	0.7199
77.2298	50.0000	0.7225
77.3300	50.0000	0.7225
77.4297	50.0000	0.7226
77.5305	50.0000	0.7208
77.6302	50.0000	0.7221
77.7302	50.0000	0.7201
77.8306	50.0000	0.7230
77.9300	50.0000	0.7204
78.0303	50.0000	0.7236
78.1306	50.0000	0.7202
78.2298	50.0000	0.7205
78.3307	50.0000	0.7219
78.4317	50.0000	0.7202
78.5313	50.0000	0.7211
78.6312	50.0000	0.7240
78.7314	50.0000	0.7234
78.8312	50.0000	0.7214
78.9310	50.0000	0.7230
79.0310	50.0000	0.7227
79.1308	50.0000	0.7210
79.2319	50.0000	0.7201
79.3323	50.0000	0.7234
79.4323	50.0000	0.7225
79.5325	50.0000	0.7221
79.6326	50.0000	0.7206
79.7325	50.0000	0.7234
79.8327	50.0000	0.7199
79.9326	50.0000	0.7201
80.0320	50.0000	0.7216
80.1327	50.0000	0.7201
80.2318	50.0000	0.7229
80.3326	50.0000	0.7189
80.4326	50.0000	0.7219
80.5322	50.0000	0.7222
80.6327	50.0000	0.7215
80.7345	50.0000	0.7210
80.8345	50.0000	0.7227
80.9343	50.0000	0.7221
81.0341	50.0000	0.7190
81.1342	50.0000	0.7219
81.2342	50.0000	0.7208
81.3346	50.0000	0.7202
81.4342	50.0000	0.7200
81.5347	50.0000	0.7204
81.6342	50.0000	0.7205
81.7338	50.0000	0.7222
81.8346	50.0000	0.7193
81.9341	50.0000	0.7201
