4/12/2023 4:40:20 pm
Time(s)	Displacement(mm)	Force(N)
0.0000	-258.7030	1.1698
0.1628	-258.2020	1.1814
0.2636	-258.2070	1.1851
0.3636	-258.2070	1.1855
0.4644	-258.2070	1.1798
0.5640	-258.2070	1.1824
0.6639	-258.2070	1.1838
0.7643	-258.2080	1.1798
0.8641	-258.2080	1.1802
0.9638	-258.2080	1.1816
1.0649	-258.2080	1.1829
1.1652	-258.2080	1.1834
1.2662	-258.2080	1.1803
1.3663	-258.2080	1.1819
1.4664	-258.2080	1.1784
1.5664	-258.2080	1.1809
1.6661	-258.2080	1.1820
1.7666	-258.2080	1.1841
1.8671	-258.2080	1.1798
1.9667	-258.2080	1.1802
2.0670	-258.2080	1.1781
2.1675	-258.2080	1.1810
2.2680	-258.2080	1.1747
2.3675	-258.2080	1.1778
2.4677	-258.2080	1.1812
2.5684	-258.2080	1.1787
2.6685	-258.2080	1.1805
2.7690	-258.2080	1.1813
2.8692	-258.2080	1.1796
2.9693	-258.2080	1.1820
3.0691	-258.2080	1.1822
3.1688	-258.2080	1.1804
3.2688	-258.2080	1.1779
3.3688	-258.2080	1.1817
3.4693	-258.2080	1.1833
3.5692	-258.2080	1.1833
3.6693	-258.2080	1.1825
3.7690	-258.2080	1.1859
3.8694	-258.2080	1.1846
3.9691	-258.2080	1.1854
4.0686	-258.2080	1.1819
4.1702	-258.2080	1.1843
4.2700	-258.2080	1.1859
4.3705	-258.2080	1.1824
4.4708	-258.2080	1.1847
4.5705	-258.2080	1.1845
4.6710	-258.2080	1.1832
4.7722	-258.2080	1.1804
4.8722	-258.2080	1.1847
4.9723	-258.2080	1.1827
5.0722	-258.2080	1.1810
5.1721	-258.2080	1.1842
5.2738	-258.2080	1.1838
5.3736	-258.2080	1.1804
5.4750	-258.2080	1.1807
5.5763	-258.2080	1.1846
5.6762	-258.2080	1.1840
5.7764	-258.2080	1.1847
5.8769	-258.2080	1.1845
5.9765	-258.0590	1.1965
6.0984	-258.0010	1.1775
6.1980	-258.0000	1.1882
6.2976	-258.0000	1.1876
6.3985	-258.0000	1.1893
6.5004	-258.0000	1.1852
6.6001	-258.0000	1.1880
6.7003	-258.0000	1.1848
6.7999	-258.0000	1.1867
6.9001	-258.0000	1.1856
6.9995	-258.0000	1.1871
7.1011	-258.0000	1.1853
7.2009	-258.0000	1.1857
7.3009	-258.0000	1.1853
7.4009	-258.0000	1.1889
7.5015	-258.0000	1.1846
7.6025	-258.0000	1.1851
7.7032	-258.0000	1.1888
7.8031	-258.0000	1.1868
7.9031	-258.0000	1.1865
8.0026	-258.0000	1.1866
8.1031	-258.0000	1.1894
8.2031	-258.0000	1.1864
8.3044	-258.0000	1.1871
8.4041	-258.0000	1.1892
8.5039	-258.0000	1.1874
8.6039	-258.0000	1.1873
8.7038	-258.0000	1.1844
8.8035	-258.0000	1.1870
8.9051	-258.0000	1.1835
9.0051	-258.0000	1.1855
9.1063	-258.0000	1.1861
9.2064	-258.0000	1.1886
9.3061	-258.0000	1.1844
9.4062	-258.0000	1.1886
9.5065	-258.0000	1.1863
9.6068	-258.0000	1.1880
9.7065	-258.0000	1.1883
9.8069	-258.0000	1.1873
9.9080	-258.0000	1.1881
10.0082	-258.0000	1.1875
10.1085	-258.0000	1.1879
10.2092	-258.0000	1.1889
10.3086	-258.0000	1.1859
10.4098	-258.0000	1.1887
10.5101	-258.0000	1.1839
10.6099	-258.0000	1.1862
10.7111	-258.0000	1.1849
10.8110	-258.0000	1.1867
10.9108	-258.0000	1.1879
11.0106	-258.0000	1.1847
11.1108	-258.0000	1.1841
11.2108	-258.0000	1.1853
11.3108	-258.0000	1.1887
11.4105	-258.0000	1.1858
11.5112	-258.0000	1.1864
11.6108	-258.0000	1.1872
11.7109	-258.0000	1.1873
11.8122	-258.0000	1.1847
11.9131	-258.0000	1.1836
12.0135	-258.0000	1.1824
12.1138	-258.0000	1.1835
12.2155	-258.0000	1.1887
12.3147	-258.0000	1.1883
12.4160	-258.0000	1.1861
12.5161	-258.0000	1.1864
12.6162	-258.0000	1.1879
12.7159	-258.0000	1.1849
12.8157	-258.0000	1.1859
12.9160	-258.0000	1.1877
13.0161	-258.0000	1.1922
13.1158	-258.0000	1.1896
13.2156	-258.0000	1.1882
13.3159	-258.0000	1.1915
13.4156	-258.0000	1.1858
13.5163	-258.0000	1.1830
13.6160	-258.1480	1.1781
13.7357	-258.5620	1.1731
13.8374	-259.2130	1.1712
13.9372	-259.8930	1.1680
14.0373	-260.0000	1.1683
14.1368	-260.0000	1.1526
14.2378	-260.0000	1.1557
14.3378	-260.0000	1.1540
14.4378	-260.0000	1.1533
14.5385	-260.0000	1.1550
14.6385	-260.0000	1.1542
14.7376	-260.0000	1.1560
14.8388	-260.0000	1.1538
14.9387	-260.0000	1.1524
15.0393	-260.0000	1.1531
15.1388	-260.0000	1.1592
15.2401	-260.0000	1.1582
15.3415	-260.0000	1.1562
15.4409	-260.0000	1.1594
15.5420	-260.0000	1.1567
15.6430	-260.0000	1.1560
15.7431	-260.0000	1.1539
15.8429	-260.0000	1.1549
15.9441	-260.0000	1.1531
16.0453	-260.0000	1.1512
16.1454	-260.0000	1.1527
16.2448	-260.0000	1.1554
16.3462	-260.0000	1.1544
16.4472	-260.0000	1.1591
16.5472	-260.0000	1.1568
16.6468	-260.0000	1.1560
16.7475	-260.0000	1.1547
16.8474	-260.0000	1.1558
16.9472	-260.0000	1.1573
17.0469	-260.0000	1.1537
17.1481	-260.0000	1.1554
17.2481	-260.0000	1.1582
17.3482	-260.0000	1.1531
17.4481	-260.0000	1.1559
17.5477	-260.0000	1.1542
17.6477	-260.0000	1.1550
17.7495	-260.0000	1.1576
17.8490	-260.0000	1.1570
17.9496	-260.0000	1.1583
18.0502	-260.0000	1.1549
18.1512	-260.0000	1.1556
18.2509	-260.0000	1.1577
18.3513	-260.0000	1.1577
18.4510	-260.0000	1.1566
18.5509	-260.0000	1.1586
18.6507	-260.0000	1.1558
18.7509	-260.0000	1.1547
18.8506	-260.0000	1.1566
18.9506	-260.0000	1.1613
19.0525	-260.0000	1.1591
19.1522	-260.0000	1.1548
19.2523	-260.0000	1.1573
19.3530	-260.0000	1.1576
19.4530	-260.0000	1.1584
19.5530	-260.0000	1.1585
19.6530	-260.0000	1.1590
19.7532	-260.0000	1.1585
19.8532	-260.0000	1.1589
19.9531	-260.0000	1.1565
20.0533	-260.0000	1.1561
20.1530	-260.0000	1.1574
20.2533	-260.0000	1.1574
20.3543	-260.0000	1.1616
20.4545	-260.0000	1.1572
20.5545	-260.0000	1.1566
20.6540	-260.0000	1.1559
20.7537	-260.0000	1.1539
20.8536	-260.0000	1.1527
20.9546	-260.0000	1.1575
21.0565	-260.0000	1.1580
21.1560	-260.0000	1.1578
21.2558	-260.0000	1.1577
21.3575	-260.0000	1.1596
21.4582	-260.0000	1.1598
21.5580	-260.0000	1.1584
21.6595	-260.0000	1.1564
21.7591	-260.0000	1.1586
21.8590	-260.0000	1.1599
21.9601	-260.0000	1.1578
22.0606	-260.0000	1.1588
22.1608	-260.0000	1.1573
22.2617	-260.0000	1.1585
22.3623	-260.0000	1.1576
22.4625	-260.0000	1.1602
22.5622	-260.0000	1.1604
22.6632	-260.0000	1.1570
22.7641	-260.0000	1.1612
22.8647	-260.0000	1.1600
22.9648	-260.0000	1.1564
23.0670	-260.0000	1.1572
23.1661	-260.0000	1.1576
23.2659	-260.0000	1.1567
23.3656	-260.0000	1.1562
23.4673	-260.0000	1.1554
23.5673	-260.0000	1.1586
23.6682	-260.0000	1.1588
23.7681	-260.0000	1.1577
23.8692	-260.0000	1.1586
23.9687	-260.0000	1.1569
24.0691	-260.0000	1.1552
24.1696	-260.0000	1.1592
24.2692	-260.0000	1.1583
24.3687	-260.0000	1.1574
24.4694	-260.0000	1.1564
24.5705	-260.0000	1.1593
24.6710	-260.0000	1.1592
24.7707	-260.0000	1.1583
24.8713	-260.0000	1.1580
24.9719	-260.0000	1.1612
25.0727	-260.0000	1.1571
25.1727	-260.0000	1.1554
25.2733	-260.0000	1.1552
25.3728	-260.0000	1.1548
25.4732	-260.0000	1.1503
25.5726	-260.0000	1.1548
25.6742	-260.0000	1.1583
25.7757	-260.0000	1.1585
25.8758	-260.0000	1.1621
25.9778	-260.0000	1.1642
26.0782	-260.0000	1.1613
26.1780	-260.0000	1.1591
26.2792	-260.0000	1.1597
26.3797	-260.0000	1.1560
26.4797	-260.0000	1.1595
26.5802	-260.0000	1.1570
26.6811	-260.0000	1.1571
26.7810	-260.0000	1.1570
26.8810	-260.0000	1.1573
26.9817	-260.1380	1.1549
27.1034	-260.5500	1.1382
27.2030	-261.2020	1.1493
27.3034	-261.8850	1.1398
27.4029	-262.5350	1.1302
27.5034	-263.2180	1.1183
27.6032	-263.8680	1.1130
27.7039	-264.5540	1.1021
27.8043	-265.2380	1.0953
27.9037	-265.8870	1.0868
28.0042	-266.5710	1.0808
28.1054	-267.2200	1.0832
28.2057	-267.9040	1.0824
28.3067	-268.5870	1.0781
28.4074	-269.2370	1.0765
28.5086	-269.9200	1.0767
28.6087	-270.6040	1.0716
28.7087	-271.2530	1.0772
28.8089	-271.9370	1.0753
28.9098	-272.5860	1.0684
29.0103	-273.2710	1.0671
29.1100	-273.9190	1.0679
29.2097	-274.6030	1.0679
29.3101	-275.2520	1.0612
29.4106	-275.9360	1.0603
29.5110	-276.5850	1.0592
29.6126	-277.2690	1.0550
29.7124	-277.9530	1.0510
29.8122	-278.6020	1.0511
29.9119	-279.2860	1.0480
30.0134	-279.9350	1.0468
30.1132	-280.6190	1.0445
30.2127	-281.3030	1.0434
30.3142	-281.9520	1.0345
30.4149	-282.6350	1.0341
30.5152	-283.2850	1.0293
30.6167	-283.9690	1.0239
30.7163	-284.6520	1.0186
30.8167	-285.3010	1.0134
30.9181	-285.9850	1.0077
31.0188	-286.6680	1.0039
31.1193	-287.3180	0.9915
31.2189	-288.0010	0.9904
31.3188	-288.6510	0.9801
31.4196	-289.3350	0.9724
31.5193	-289.9840	0.9634
31.6190	-290.6680	0.9508
31.7192	-291.3170	0.9381
31.8193	-292.0010	0.9289
31.9196	-292.6500	0.9137
32.0206	-293.3330	0.8990
32.1210	-294.0170	0.8812
32.2209	-294.6670	0.8621
32.3210	-295.3500	0.8391
32.4213	-296.0000	0.8107
32.5234	-296.6830	0.7861
32.6231	-297.3320	0.7545
32.7233	-298.0160	0.7218
32.8232	-298.6660	0.6780
32.9230	-299.3520	0.6391
33.0231	-300.0010	0.5902
33.1228	-300.6870	0.5399
33.2243	-301.3710	0.4768
33.3246	-302.0200	0.4059
33.4241	-302.7040	0.3267
33.5240	-303.3530	0.2338
33.6243	-304.0360	0.1305
33.7241	-304.6860	0.0149
33.8244	-305.3690	-0.1173
33.9242	-306.0190	-0.2678
34.0258	-306.7030	-0.4382
34.1263	-307.3860	-0.6388
34.2263	-308.0360	-0.8633
34.3265	-308.6860	-1.1236
34.4261	-309.3690	-1.4177
34.5263	-310.0520	-1.7495
34.6261	-310.7020	-2.1185
34.7269	-311.3850	-2.5366
34.8276	-312.0350	-3.0055
34.9282	-312.7180	-3.5299
35.0281	-313.3680	-4.1100
35.1278	-314.0510	-4.7437
35.2279	-314.7350	-5.4326
35.3282	-315.3840	-6.1714
35.4284	-316.0340	-6.9452
35.5279	-316.7100	-7.7588
35.6287	-316.8010	-8.6907
35.7286	-316.8010	-8.8607
35.8282	-316.8010	-8.6020
35.9283	-316.8010	-8.4503
36.0287	-316.8010	-8.3469
36.1285	-316.8000	-8.2652
36.2285	-316.8000	-8.1979
36.3283	-316.8000	-8.1428
36.4285	-316.8000	-8.0954
36.5287	-316.8000	-8.0547
36.6287	-316.8000	-8.0201
36.7281	-316.8000	-7.9855
36.8278	-316.8000	-7.9545
36.9284	-316.8000	-7.9267
37.0292	-316.8000	-7.9039
37.1290	-316.8000	-7.8775
37.2293	-316.8000	-7.8548
37.3293	-316.8000	-7.8381
37.4303	-316.8000	-7.8189
37.5301	-316.8000	-7.8009
37.6307	-316.8000	-7.7823
37.7305	-316.8000	-7.7690
37.8317	-316.8000	-7.7525
37.9311	-316.8000	-7.7365
38.0311	-316.8000	-7.7232
38.1308	-316.8000	-7.7101
38.2331	-316.8000	-7.6966
38.3321	-316.8000	-7.6844
38.4325	-316.8000	-7.6724
38.5318	-316.8000	-7.6624
38.6337	-316.8000	-7.6529
38.7332	-316.8000	-7.6405
38.8333	-316.8000	-7.6288
38.9328	-316.8000	-7.6214
39.0329	-316.8000	-7.6117
39.1334	-316.8000	-7.6031
39.2333	-316.8000	-7.5943
39.3328	-316.8000	-7.5884
39.4336	-316.8000	-7.5774
39.5333	-316.8000	-7.5684
39.6342	-316.8000	-7.5605
39.7347	-316.8000	-7.5511
39.8349	-316.8000	-7.5448
39.9350	-316.8000	-7.5379
40.0353	-316.8000	-7.5298
40.1357	-316.8000	-7.5249
40.2358	-316.8000	-7.5207
40.3365	-316.8000	-7.5110
40.4373	-316.8000	-7.5064
40.5374	-316.8000	-7.4977
40.6372	-316.8000	-7.4911
40.7373	-316.8000	-7.4860
40.8369	-316.8000	-7.4822
40.9380	-316.8000	-7.4743
41.0379	-316.8000	-7.4656
41.1387	-316.8000	-7.4616
41.2388	-316.8000	-7.4569
41.3399	-316.8000	-7.4522
41.4406	-316.8000	-7.4437
41.5404	-316.8000	-7.4392
41.6399	-316.8000	-7.4381
41.7399	-316.8000	-7.4329
41.8399	-316.8000	-7.4238
41.9410	-316.8000	-7.4196
42.0417	-316.8000	-7.4183
42.1412	-316.8000	-7.4133
42.2412	-316.8000	-7.4053
42.3412	-316.8000	-7.4044
42.4424	-316.8000	-7.3984
42.5431	-316.8000	-7.3964
42.6433	-316.8000	-7.3894
42.7435	-316.8000	-7.3852
42.8433	-316.8000	-7.3828
42.9431	-316.8000	-7.3747
43.0434	-316.8000	-7.3709
43.1435	-316.8000	-7.3664
43.2432	-316.8000	-7.3640
43.3432	-316.8000	-7.3592
43.4435	-316.8000	-7.3552
43.5435	-316.8000	-7.3506
43.6436	-316.8000	-7.3463
43.7432	-316.8000	-7.3437
43.8432	-316.8000	-7.3408
43.9434	-316.8000	-7.3367
44.0434	-316.8000	-7.3341
44.1428	-316.8000	-7.3300
44.2430	-316.8000	-7.3247
44.3428	-316.8000	-7.3248
44.4434	-316.8000	-7.3201
44.5435	-316.8000	-7.3160
44.6445	-316.8000	-7.3104
44.7445	-316.8000	-7.3082
44.8449	-316.8000	-7.3067
44.9449	-316.8000	-7.3042
45.0451	-316.8000	-7.3008
45.1452	-316.8000	-7.2961
45.2457	-316.8000	-7.2928
45.3456	-316.8000	-7.2890
45.4452	-316.8000	-7.2844
45.5453	-316.8000	-7.2825
45.6455	-316.8000	-7.2785
45.7452	-316.8000	-7.2747
45.8454	-316.8000	-7.2727
45.9456	-316.8000	-7.2710
46.0452	-316.8000	-7.2652
46.1454	-316.8000	-7.2651
46.2452	-316.8000	-7.2645
46.3460	-316.8000	-7.2607
46.4460	-316.8000	-7.2595
46.5464	-316.8000	-7.2554
46.6465	-316.8000	-7.2548
46.7468	-316.8000	-7.2513
46.8466	-316.8000	-7.2491
46.9474	-316.8000	-7.2487
47.0469	-316.8000	-7.2470
47.1471	-316.8000	-7.2436
47.2474	-316.8000	-7.2405
47.3477	-316.8000	-7.2365
47.4479	-316.8000	-7.2342
47.5483	-316.8000	-7.2316
47.6485	-316.8000	-7.2285
47.7483	-316.8000	-7.2266
47.8480	-316.8000	-7.2194
47.9489	-316.8000	-7.2192
48.0490	-316.8000	-7.2195
48.1493	-316.8000	-7.2176
48.2493	-316.8000	-7.2129
48.3494	-316.8000	-7.2099
48.4501	-316.8000	-7.2083
48.5517	-316.8000	-7.2086
48.6516	-316.8000	-7.2033
48.7514	-316.8000	-7.2027
48.8524	-316.8000	-7.2003
48.9525	-316.8000	-7.1994
49.0522	-316.8000	-7.1916
49.1529	-316.8000	-7.1907
49.2532	-316.8000	-7.1897
49.3554	-316.8000	-7.1899
49.4560	-316.8000	-7.1857
49.5560	-316.8000	-7.1840
49.6574	-316.8000	-7.1826
49.7580	-316.8000	-7.1802
49.8584	-316.8000	-7.1808
49.9589	-316.8000	-7.1792
50.0597	-316.8000	-7.1771
50.1595	-316.8000	-7.1705
50.2589	-316.8000	-7.1695
50.3593	-316.8000	-7.1669
50.4598	-316.8000	-7.1660
50.5597	-316.8000	-7.1634
50.6596	-316.8000	-7.1624
50.7598	-316.8000	-7.1602
50.8594	-316.8000	-7.1600
50.9595	-316.8000	-7.1575
51.0596	-316.8000	-7.1544
51.1596	-316.8000	-7.1544
51.2599	-316.8000	-7.1529
51.3603	-316.8000	-7.1517
51.4610	-316.8000	-7.1488
51.5626	-316.8000	-7.1456
51.6620	-316.8000	-7.1445
51.7625	-316.8000	-7.1414
51.8633	-316.8000	-7.1396
51.9635	-316.8000	-7.1393
52.0636	-316.8000	-7.1347
52.1630	-316.8000	-7.1362
52.2643	-316.8000	-7.1329
52.3653	-316.8000	-7.1310
52.4653	-316.8000	-7.1306
52.5663	-316.8000	-7.1269
52.6660	-316.8000	-7.1219
52.7666	-316.8000	-7.1250
52.8676	-316.8000	-7.1248
52.9672	-316.8000	-7.1206
53.0674	-316.8000	-7.1186
53.1678	-316.8000	-7.1193
53.2670	-316.8000	-7.1176
53.3672	-316.8000	-7.1184
53.4671	-316.8000	-7.1134
53.5671	-316.8000	-7.1127
53.6674	-316.8000	-7.1090
53.7674	-316.8000	-7.1091
53.8670	-316.8000	-7.1084
53.9670	-316.8000	-7.1059
54.0673	-316.8000	-7.1014
54.1680	-316.8000	-7.1010
54.2690	-316.8000	-7.0995
54.3689	-316.8000	-7.0938
54.4693	-316.8000	-7.0937
54.5700	-316.8000	-7.0934
54.6699	-316.8000	-7.0923
54.7716	-316.8000	-7.0893
54.8713	-316.8000	-7.0895
54.9712	-316.8000	-7.0880
55.0710	-316.8000	-7.0861
55.1712	-316.8000	-7.0848
55.2713	-316.8000	-7.0832
55.3713	-316.8000	-7.0815
55.4712	-316.8000	-7.0814
55.5712	-316.8000	-7.0787
55.6712	-316.8000	-7.0778
55.7712	-316.8000	-7.0771
55.8714	-316.8000	-7.0762
55.9712	-316.8000	-7.0728
56.0713	-316.8000	-7.0745
56.1712	-316.8000	-7.0741
56.2709	-316.8000	-7.0705
56.3717	-316.8000	-7.0702
56.4714	-316.8000	-7.0716
56.5714	-316.8000	-7.0672
56.6711	-316.8000	-7.0655
56.7718	-316.8000	-7.0629
56.8725	-316.8000	-7.0647
56.9727	-316.8000	-7.0583
57.0720	-316.8000	-7.0609
57.1726	-316.8000	-7.0575
57.2732	-316.8000	-7.0565
57.3735	-316.8000	-7.0542
57.4735	-316.8000	-7.0551
57.5733	-316.8000	-7.0522
57.6756	-316.8000	-7.0510
57.7755	-316.8000	-7.0509
57.8751	-316.8000	-7.0470
57.9750	-316.8000	-7.0483
58.0767	-316.8000	-7.0494
58.1760	-316.8000	-7.0442
58.2778	-316.8000	-7.0450
58.3789	-316.8000	-7.0443
58.4785	-316.8000	-7.0423
58.5785	-316.8000	-7.0455
58.6784	-316.8000	-7.0429
58.7799	-316.8000	-7.0421
58.8798	-316.8000	-7.0400
58.9794	-316.8000	-7.0391
59.0794	-316.8000	-7.0359
59.1809	-316.8000	-7.0371
59.2800	-316.8000	-7.0355
59.3812	-316.8000	-7.0336
59.4813	-316.8000	-7.0320
59.5816	-316.8000	-7.0337
59.6827	-316.8000	-7.0304
59.7832	-316.8000	-7.0292
59.8836	-316.8000	-7.0279
59.9836	-316.8000	-7.0294
60.0831	-316.8000	-7.0250
60.1835	-316.8000	-7.0249
60.2835	-316.8000	-7.0201
60.3837	-316.8000	-7.0202
60.4831	-316.8000	-7.0201
60.5846	-316.8000	-7.0180
60.6852	-316.8000	-7.0188
60.7858	-316.8000	-7.0189
60.8865	-316.8000	-7.0150
60.9867	-316.8000	-7.0160
61.0871	-316.8000	-7.0135
61.1872	-316.8000	-7.0140
61.2870	-316.8000	-7.0148
61.3870	-316.8000	-7.0129
61.4877	-316.8000	-7.0123
61.5883	-316.8000	-7.0112
61.6876	-316.8000	-7.0085
61.7886	-316.8000	-7.0072
61.8889	-316.8000	-7.0046
61.9884	-316.8000	-7.0058
62.0883	-316.8000	-7.0026
62.1883	-316.8000	-6.9993
62.2882	-316.8000	-6.9989
62.3885	-316.8000	-6.9960
62.4889	-316.8000	-6.9980
62.5889	-316.8000	-6.9988
62.6890	-316.8000	-6.9962
62.7898	-316.8000	-6.9936
62.8901	-316.8000	-6.9930
62.9908	-316.8000	-6.9938
63.0908	-316.8000	-6.9966
63.1917	-316.8000	-6.9911
63.2913	-316.8000	-6.9914
63.3927	-316.8000	-6.9887
63.4927	-316.8000	-6.9879
63.5930	-316.8000	-6.9869
63.6937	-316.8000	-6.9840
63.7942	-316.8000	-6.9830
63.8945	-316.8000	-6.9828
63.9949	-316.8000	-6.9828
64.0944	-316.8000	-6.9857
64.1944	-316.8000	-6.9816
64.2944	-316.8000	-6.9781
64.3946	-316.8000	-6.9762
64.4950	-316.8000	-6.9785
64.5948	-316.8000	-6.9808
64.6942	-316.8000	-6.9774
64.7956	-316.8000	-6.9765
64.8961	-316.8000	-6.9764
64.9968	-316.8000	-6.9750
65.0960	-316.8000	-6.9734
65.1972	-316.8000	-6.9688
65.2975	-316.8000	-6.9710
65.3981	-316.8000	-6.9708
65.4999	-316.8000	-6.9699
65.5991	-316.8000	-6.9681
65.6994	-316.8000	-6.9699
65.7994	-316.8000	-6.9683
65.8996	-316.8000	-6.9661
66.0006	-316.8000	-6.9686
66.1016	-316.8000	-6.9674
66.2018	-316.8000	-6.9636
66.3014	-316.8000	-6.9602
66.4013	-316.8000	-6.9618
66.5026	-316.8000	-6.9572
66.6035	-316.8000	-6.9569
66.7046	-316.8000	-6.9548
66.8043	-316.8000	-6.9526
66.9046	-316.8000	-6.9575
67.0044	-316.8000	-6.9543
67.1041	-316.8000	-6.9545
67.2044	-316.8000	-6.9532
67.3045	-316.8000	-6.9485
67.4045	-316.8000	-6.9520
67.5056	-316.8000	-6.9477
67.6065	-316.8000	-6.9476
67.7066	-316.8000	-6.9462
67.8069	-316.8000	-6.9475
67.9077	-316.8000	-6.9451
68.0080	-316.8000	-6.9436
68.1090	-316.8000	-6.9449
68.2091	-316.8000	-6.9446
68.3092	-316.8000	-6.9424
68.4092	-316.8000	-6.9422
68.5110	-316.8000	-6.9418
68.6108	-316.8000	-6.9407
68.7116	-316.8000	-6.9401
68.8114	-316.8000	-6.9407
68.9127	-316.8000	-6.9390
69.0121	-316.8000	-6.9384
69.1126	-316.8000	-6.9363
69.2135	-316.8000	-6.9373
69.3136	-316.8000	-6.9358
69.4133	-316.8000	-6.9339
69.5134	-316.8000	-6.9351
69.6134	-316.8000	-6.9325
69.7136	-316.8000	-6.9317
69.8135	-316.8000	-6.9300
69.9138	-316.8000	-6.9317
70.0137	-316.8000	-6.9306
70.1134	-316.8000	-6.9270
70.2138	-316.8000	-6.9270
70.3138	-316.8000	-6.9293
70.4138	-316.8000	-6.9254
70.5138	-316.8000	-6.9288
70.6138	-316.8000	-6.9212
70.7138	-316.8000	-6.9239
70.8138	-316.8000	-6.9248
70.9136	-316.8000	-6.9253
71.0135	-316.8000	-6.9227
71.1135	-316.8000	-6.9241
71.2134	-316.8000	-6.9213
71.3136	-316.8000	-6.9183
71.4137	-316.8000	-6.9194
71.5133	-316.8000	-6.9187
71.6137	-316.8000	-6.9156
71.7136	-316.8000	-6.9167
71.8136	-316.8000	-6.9151
71.9136	-316.8000	-6.9170
72.0133	-316.8000	-6.9143
72.1136	-316.8000	-6.9139
72.2138	-316.8000	-6.9147
72.3148	-316.8000	-6.9172
72.4142	-316.8000	-6.9146
72.5146	-316.8000	-6.9151
72.6157	-316.8000	-6.9113
72.7166	-316.8000	-6.9115
72.8166	-316.8000	-6.9047
72.9169	-316.8000	-6.9079
73.0161	-316.8000	-6.9072
73.1180	-316.8000	-6.9066
73.2182	-316.8000	-6.9032
73.3187	-316.8000	-6.9054
73.4200	-316.8000	-6.9038
73.5200	-316.8000	-6.9043
73.6197	-316.8000	-6.9005
73.7205	-316.8000	-6.9020
73.8211	-316.8000	-6.9031
73.9230	-316.8000	-6.9056
74.0236	-316.8000	-6.9014
74.1235	-316.8000	-6.8998
74.2237	-316.8000	-6.9021
74.3234	-316.8000	-6.8990
74.4235	-316.8000	-6.8969
74.5248	-316.8000	-6.8982
74.6242	-316.8000	-6.8999
74.7253	-316.8000	-6.8964
74.8259	-316.8000	-6.8940
74.9257	-316.8000	-6.8911
75.0258	-316.8000	-6.8926
75.1263	-316.8000	-6.8935
75.2275	-316.8000	-6.8973
75.3269	-316.8000	-6.8950
75.4264	-316.8000	-6.8889
75.5278	-316.8000	-6.8895
75.6281	-316.8000	-6.8904
